#Wave		#Intensity
899.963257	135.515167
899.920715	180.686905
899.878235	103.878296
899.835815	153.534576
899.793274	144.479935
899.750793	135.428207
899.708252	99.298080
899.665771	85.743668
899.623230	148.899323
899.580688	166.920929
899.538208	135.319580
899.495667	184.907074
899.453186	126.257736
899.410645	153.288361
899.368103	139.740494
899.325623	135.211044
899.283020	139.695648
899.240540	171.212357
899.197998	112.621635
899.155396	103.595276
899.112854	144.109436
899.070312	144.086304
899.027771	139.561218
898.985229	144.040085
898.942688	157.518555
898.900085	130.494431
898.857544	125.974411
898.814941	103.462379
898.772400	166.412781
898.729797	130.410706
898.687256	103.412590
898.644714	112.386955
898.602112	157.316498
898.559570	98.868790
898.516907	148.279388
898.474304	170.718567
898.431763	161.707428
898.389221	130.243423
898.346558	98.789505
898.304016	67.345673
898.261353	121.202766
898.218750	125.671600
898.176147	94.238579
898.133606	121.144447
898.090942	121.125015
898.048340	89.707840
898.005676	49.331398
897.963074	121.066734
897.920471	125.530548
897.877808	71.720238
897.835205	179.271835
897.792542	107.545845
897.749939	80.646446
897.707275	152.307739
897.664673	120.930862
897.622009	138.824280
897.579346	156.711945
897.536743	94.012085
897.494080	138.757492
897.451477	152.161224
897.408752	107.390694
897.366089	161.060196
897.323425	165.507553
897.280823	134.173782
897.238098	152.039230
897.195435	111.775627
897.152710	125.168625
897.110046	49.165501
897.067383	58.095364
897.024719	102.767624
896.982056	165.295319
896.939331	214.402771
896.896667	116.116211
896.854004	111.632294
896.811279	120.543541
896.768555	156.235092
896.725830	107.115456
896.683167	129.410416
896.640442	116.004524
896.597778	13.382991
896.555054	160.570145
896.512268	75.812630
896.469604	151.600937
896.426880	106.995270
896.384094	115.892952
896.341431	142.614609
896.298706	102.487816
896.255920	98.016106
896.213257	151.455139
896.170532	120.253914
896.127747	111.328362
896.085022	102.405670
896.042236	53.420479
895.999512	120.176804
895.956787	106.806702
895.913940	120.138268
895.871216	155.709824
895.828430	102.307190
895.785767	80.053658
895.742981	155.634933
895.700195	151.163986
895.657410	115.577454
895.614624	137.781799
895.571838	115.540398
895.529114	75.533531
895.486267	137.715530
895.443481	93.276215
895.400757	146.553406
895.357910	142.089615
895.315125	106.550117
895.272339	106.533035
895.229553	150.897614
895.186768	159.748322
895.143921	124.228775
895.101135	124.208862
895.058350	119.753632
895.015442	146.342087
894.972656	133.016937
894.929871	172.894287
894.887024	101.946953
894.844238	132.952972
894.801392	128.500595
894.758545	137.340698
894.715698	66.444519
894.672913	110.723114
894.630066	106.277153
894.587219	97.405106
894.544373	128.377060
894.501526	146.060822
894.458679	132.761276
894.415894	154.863327
894.372986	101.751022
894.330078	154.813690
894.287292	137.098709
894.244446	128.233078
894.201538	172.423737
894.158691	176.816513
894.115845	128.171432
894.072876	83.960922
894.030029	101.620621
893.987183	145.780121
893.944275	101.588043
893.901428	105.987923
893.858521	123.632759
893.815552	158.930923
893.772766	150.077377
893.729858	123.573326
893.686951	158.854523
893.644043	105.886040
893.601135	88.224228
893.558167	132.315125
893.515320	83.786148
893.472412	92.590904
893.429504	132.251526
893.386536	149.861038
893.343689	118.988220
893.300720	132.187943
893.257812	140.977875
893.214844	136.550430
893.171936	79.274643
893.129028	114.489464
893.086060	57.235558
893.043091	83.638565
893.000183	176.052979
892.957275	92.412994
892.914307	114.397758
892.871338	114.379425
892.828430	105.564087
892.785461	180.309753
892.742493	123.118637
892.699524	136.288071
892.656555	145.057602
892.613525	162.614273
892.570618	162.588226
892.527649	153.775024
892.484619	109.821701
892.441711	153.725754
892.398682	131.743805
892.355652	96.596649
892.312744	48.290585
892.269775	65.840248
892.226746	87.772926
892.183777	118.474464
892.140686	179.876846
892.097717	118.436501
892.054749	83.330849
892.011719	171.020126
891.968750	39.459858
891.925720	131.511795
891.882751	131.490723
891.839722	148.998932
891.796692	122.685349
891.753662	105.142021
891.710632	131.406464
891.667603	153.282974
891.624573	113.849113
891.581482	175.124420
891.538513	118.190041
891.495422	113.794403
891.452454	105.024155
891.409363	87.506104
891.366272	83.117485
891.323242	174.956146
891.280273	148.688889
891.237122	157.410080
891.194092	139.897644
891.151062	148.617447
891.107971	179.186432
891.064880	96.133415
891.021851	200.974030
890.978760	109.207520
890.935730	174.704041
890.892639	122.273232
890.849548	109.155037
890.806458	148.427078
890.763367	174.592117
890.720276	161.471832
890.677185	135.265533
890.634155	161.420105
890.591003	135.222198
890.547913	130.839233
890.504761	104.654617
890.461731	139.517136
890.418579	135.135574
890.375488	95.887299
890.332336	61.009418
890.289246	130.713516
890.246155	139.405426
890.203003	165.517426
890.159912	121.940666
890.116760	78.377876
890.073669	74.011688
890.030457	147.999664
889.987366	178.441605
889.944214	100.085350
889.901062	147.928558
889.857910	130.504288
889.814758	182.676743
889.771606	152.206238
889.728516	186.966278
889.685364	95.641838
889.642212	104.319839
889.598999	95.611206
889.555908	65.179016
889.512695	73.857719
889.469543	199.818283
889.426392	82.520424
889.383240	91.192169
889.340027	121.570091
889.296875	86.821869
889.253723	173.615921
889.210449	156.229309
889.167297	130.170227
889.124146	99.781197
889.080933	95.427597
889.037781	73.727692
888.994507	156.104233
888.951294	108.388351
888.908081	69.357437
888.864868	104.019493
888.821716	82.335571
888.778503	142.980988
888.735291	151.622208
888.692078	69.301910
888.648804	138.581619
888.605652	77.939682
888.562378	181.830124
888.519226	138.515045
888.475952	116.853355
888.432739	147.125107
888.389465	77.877289
888.346252	86.516457
888.303040	99.477997
888.259766	82.164314
888.216492	138.359833
888.173279	116.722420
888.130066	129.670807
888.086731	133.971710
888.043457	120.987320
888.000244	142.569366
887.956970	138.226944
887.913696	129.567001
887.870483	142.500885
887.827209	155.430618
887.783936	90.653336
887.740601	151.064697
887.697327	138.094177
887.654053	112.183548
887.610779	142.364014
887.567505	142.341217
887.524231	142.318420
887.480957	146.607620
887.437622	150.895432
887.394348	103.454590
887.351074	181.016541
887.307739	99.112228
887.264404	168.032959
887.221130	142.158966
887.177734	167.979141
887.134460	77.516418
887.091125	133.479126
887.047852	120.542480
887.004517	146.349579
886.961182	124.807587
886.917908	73.151352
886.874573	98.953629
886.831238	55.921356
886.787842	141.931488
886.744568	129.007965
886.701172	141.886032
886.657837	184.852188
886.614502	124.647797
886.571167	111.735306
886.527832	120.311058
886.484436	133.180206
886.441101	133.158875
886.397766	133.137558
886.354370	128.822159
886.310974	150.268463
886.267639	111.610123
886.224304	145.928329
886.180908	141.613632
886.137451	150.172241
886.094177	163.018036
886.050781	145.834885
886.007385	124.368660
885.963989	145.788193
885.920593	77.169624
885.877197	115.735901
885.833862	128.574860
885.790405	145.694839
885.747009	167.093796
885.703613	119.945564
885.660217	192.738785
885.616821	154.166351
885.573364	141.296524
885.529968	107.025681
885.486511	149.811966
885.443115	85.593132
885.399719	94.137367
885.356323	106.957153
885.312805	149.716034
885.269409	102.645988
885.225952	124.010712
885.182556	162.470779
885.139099	141.070450
885.095642	59.838490
885.052185	85.469872
885.008728	81.183380
884.965332	128.163757
884.921875	149.500443
884.878418	98.227417
884.835022	93.941620
884.791504	89.657188
884.748108	119.523781
884.704590	132.308716
884.661072	106.683487
884.617615	115.199722
884.574219	132.245178
884.530762	51.183483
884.487244	144.996658
884.443726	162.029129
884.400269	102.317810
884.356812	21.312798
884.313232	89.499420
884.269836	140.619431
884.226257	161.899475
884.182739	195.952194
884.139343	144.811050
884.095825	132.012466
884.052307	136.249115
884.008789	136.227295
883.965332	170.256866
883.921753	110.649239
883.878235	148.927063
883.834717	72.324417
883.791199	148.879379
883.747681	144.602524
883.704163	51.028015
883.660645	80.781425
883.617126	123.278221
883.573547	165.761414
883.530029	114.739525
883.486511	63.733978
883.442932	123.199295
883.399414	127.427147
883.355896	97.678505
883.312317	84.924232
883.268738	157.084671
883.225220	114.611008
883.181641	97.615967
883.138062	110.330818
883.094482	131.527222
883.050964	148.474716
883.007385	148.450943
882.963745	152.667953
882.920227	89.042046
882.876648	152.619080
882.833069	67.819839
882.789429	72.047043
882.745911	101.697197
882.702332	182.178299
882.658691	114.372719
882.615112	135.531143
882.571533	97.397415
882.527954	131.253769
882.484314	160.865952
882.440735	135.444382
882.397156	63.479389
882.353516	165.019989
882.309875	139.609955
882.266296	63.448910
882.222656	173.399261
882.179016	101.485756
882.135437	97.241615
882.091797	76.089951
882.048218	122.569740
882.004517	143.679443
881.960876	156.332016
881.917236	59.143185
881.873657	147.834290
881.829956	114.025345
881.786316	118.229576
881.742737	97.101601
881.699036	80.201530
881.655396	105.511429
881.611694	143.472580
881.568054	130.792297
881.524414	147.645081
881.480774	126.532661
881.437073	147.597809
881.393372	172.872620
881.349731	160.197754
881.306091	113.806496
881.262390	88.501991
881.218689	160.120834
881.174988	117.964882
881.131348	130.583069
881.087646	105.292068
881.044006	168.440353
881.000244	193.675385
880.956604	168.386429
880.912903	101.015678
880.869141	126.249390
880.825500	117.813904
880.781799	143.036835
880.738098	143.013947
880.694397	142.991043
880.650574	75.689026
880.606934	121.923904
880.563232	151.329590
880.519470	138.696579
880.475769	37.820286
880.432007	109.241112
880.388306	121.826355
880.344604	121.806854
880.300842	104.989098
880.257080	104.972290
880.213379	113.351929
880.169617	104.938690
880.125854	54.559383
880.082092	142.670929
880.038391	33.564255
879.994629	104.871513
879.950867	58.718647
879.907104	163.547180
879.863342	104.821159
879.819580	71.266975
879.775818	113.170609
879.732056	104.770828
879.688293	125.704872
879.644531	117.305763
879.600708	125.664627
879.556946	134.020813
879.513123	133.999359
879.469299	117.230675
879.425598	154.887161
879.381775	125.564087
879.338013	87.880791
879.294189	100.419113
879.250427	83.669197
879.206604	188.225555
879.162781	163.102707
879.119019	183.983856
879.075134	129.604233
879.031372	79.422142
878.987549	183.895508
878.943726	83.575493
878.899963	100.274536
878.856140	171.274902
878.812317	87.712128
878.768433	141.987381
878.724609	87.684052
878.680786	150.291458
878.636963	116.874641
878.593079	137.723068
878.549255	154.392044
878.505432	125.162704
878.461609	91.771294
878.417725	45.878300
878.373840	129.272690
878.330017	112.574326
878.286194	187.593842
878.242310	108.370201
878.198425	141.692200
878.154602	83.335007
878.110718	170.809418
878.066895	104.135414
878.022949	116.612991
877.979065	129.086578
877.935181	133.229324
877.891296	141.533508
877.847473	158.159180
877.803589	149.811035
877.759705	99.858032
877.715759	187.203842
877.671936	120.623161
877.627991	124.762611
877.584106	103.952202
877.540222	199.556274
877.496277	99.762161
877.452393	153.775391
877.408447	149.595337
877.364563	132.952347
877.320679	120.468781
877.276672	112.142639
877.232788	103.819153
877.188904	141.171448
877.144958	145.300278
877.101013	58.110809
877.057068	112.052910
877.013184	145.230515
876.969238	116.165817
876.925354	66.369843
876.881348	95.391373
876.837402	132.697189
876.793457	91.214714
876.749512	161.672928
876.705566	74.606331
876.661560	103.603310
876.617676	145.021423
876.573730	140.855392
876.529724	140.832855
876.485779	99.395508
876.441833	128.365311
876.397888	132.484924
876.353821	107.626770
876.309875	132.442505
876.265869	128.283142
876.221924	107.575089
876.177917	111.694710
876.133972	78.587402
876.089966	165.420670
876.046021	70.292534
876.002014	124.025787
875.958008	95.071213
875.913940	132.251816
875.869995	90.908569
875.825989	103.288658
875.781982	45.439735
875.737976	86.734695
875.693970	103.239059
875.649902	94.964729
875.605896	165.129623
875.561890	86.679169
875.517883	107.299889
875.473877	123.787743
875.429810	115.516731
875.385864	123.748116
875.341736	90.734093
875.297791	115.461266
875.253723	98.950958
875.209656	152.524979
875.165588	111.284187
875.121521	144.234192
875.077454	86.526657
875.033447	119.470070
874.989380	140.045929
874.945374	152.378525
874.901306	168.824844
874.857239	94.691460
874.813110	94.676308
874.769104	123.471062
874.725037	135.796432
874.680969	90.516457
874.636841	123.411774
874.592773	131.618149
874.548706	78.135765
874.504639	90.458511
874.460571	168.554779
874.416443	90.429550
874.372437	152.061707
874.328308	127.382660
874.284180	45.193062
874.240051	168.419907
874.196045	151.964355
874.151917	160.153000
874.107788	131.386551
874.063660	127.260353
874.019531	123.135460
873.975464	139.531189
873.931335	143.612045
873.887207	123.076332
873.843079	102.547188
873.798950	168.150467
873.754822	118.916656
873.710754	118.897621
873.666565	77.885971
873.622437	86.070709
873.578308	168.015915
873.534180	155.697128
873.489990	98.319290
873.445862	139.263367
873.401672	126.955086
873.357605	147.408112
873.313416	106.444366
873.269287	130.987488
873.225098	139.151917
873.180969	77.748917
873.136780	118.650398
873.092590	159.538788
873.048462	134.972748
873.004272	130.861710
872.960083	151.284622
872.915894	143.084167
872.871765	114.449005
872.827576	85.823013
872.783386	126.670830
872.739197	159.334564
872.695007	126.630272
872.650818	114.357414
872.606567	130.673264
872.562439	118.403687
872.518188	151.042587
872.474060	138.773666
872.429810	122.427750
872.385559	122.408142
872.341370	110.149689
872.297241	89.737228
872.252930	171.289108
872.208740	110.096794
872.164551	154.926239
872.120361	126.366951
872.076050	118.195320
872.031860	134.476593
871.987610	134.455063
871.943359	126.286041
871.899109	61.096367
871.854919	114.028290
871.810608	109.938240
871.766418	146.560852
871.722168	113.973526
871.677917	122.094940
871.633667	134.282928
871.589417	105.781731
871.545166	154.579315
871.500916	97.613403
871.456665	101.664352
871.412354	113.845840
871.368103	126.023430
871.323853	121.938629
871.279602	142.238953
871.235229	60.949791
871.190979	117.817398
871.146790	113.736511
871.102417	170.577454
871.058105	93.396500
871.013916	113.681885
870.969604	182.673767
870.925293	125.821785
870.880981	150.150345
870.836731	89.264282
870.792419	117.647713
870.748047	89.235703
870.703796	97.332451
870.659485	121.646080
870.615173	68.921738
870.570862	68.910706
870.526550	109.428886
870.482178	117.515907
870.437866	129.651962
870.393555	157.988022
870.349243	166.063370
870.304932	129.589691
870.260559	149.814087
870.216248	141.693329
870.171875	174.052490
870.127563	117.365448
870.083252	101.160904
870.038879	56.641037
869.994507	133.489639
869.950195	153.690720
869.905823	68.745361
869.861511	97.036736
869.817078	125.319046
869.772766	88.921852
869.728394	117.196404
869.684021	80.812157
869.639648	161.598434
869.595276	121.179420
869.550903	133.276016
869.506531	149.406754
869.462158	104.971718
869.417786	125.138542
869.373413	92.829857
869.328979	100.885857
869.284607	104.904488
869.240234	96.819405
869.195862	125.038368
869.151428	84.689842
869.107056	133.062729
869.062622	96.757393
869.018250	116.896461
868.973877	76.575073
868.929443	68.503563
868.885010	68.492592
868.840637	104.736603
868.796143	116.802887
868.751770	153.027542
868.707336	189.240601
868.662903	165.055786
868.618469	169.054459
868.574036	185.125229
868.529663	88.523972
868.485229	140.811035
868.440735	112.630783
868.396301	80.437675
868.351868	112.594711
868.307434	80.411911
868.263000	176.877869
868.218506	100.482697
868.174072	76.354614
868.129578	120.540611
868.085144	128.556061
868.040710	64.267731
867.996277	140.563141
867.951721	92.355270
867.907288	188.695770
867.862793	136.481461
867.818359	136.459595
867.773865	164.527863
867.729370	116.354721
867.684937	120.347679
867.640442	104.284615
867.595947	160.412170
867.551514	132.318848
867.506958	92.207451
867.462463	100.209435
867.417969	172.332626
867.373535	204.361771
867.328979	84.135483
867.284485	104.151054
867.239929	84.108528
867.195435	172.194641
867.150940	116.112671
867.106445	144.116776
867.061890	164.106705
867.017395	124.060799
866.972839	148.048843
866.928345	104.017662
866.883789	156.001495
866.839294	143.978317
866.794739	127.960220
866.750183	131.937836
866.705688	111.929321
866.661133	127.898735
866.616638	123.882050
866.572021	79.911102
866.527527	139.822021
866.482910	111.839699
866.438416	115.815422
866.393860	183.677780
866.349304	139.732452
866.304749	135.718353
866.260193	167.625214
866.215637	131.684433
866.171021	103.734749
866.126465	99.728966
866.081909	119.655594
866.037292	99.697014
865.992676	87.719322
865.948181	143.517715
865.903564	95.663147
865.859009	123.545097
865.814392	127.509995
865.769836	143.425751
865.725159	87.635033
865.680603	119.483170
865.635986	103.535492
865.591431	111.481895
865.546753	159.234329
865.502197	151.248383
865.457581	127.346649
865.412964	115.389412
865.368347	103.435997
865.323792	107.397095
865.279114	143.173187
865.234497	127.244667
865.189880	119.272758
865.145264	99.378044
865.100647	119.234543
865.055969	119.215439
865.011353	79.464226
864.966675	79.451492
864.922058	91.354576
864.877441	115.167747
864.832825	127.061287
864.788147	95.280693
864.743469	127.020569
864.698853	119.062706
864.654175	75.394295
864.609497	130.927002
864.564880	91.237534
864.520203	190.378250
864.475586	118.967346
864.430908	107.053452
864.386169	138.750763
864.341492	107.019142
864.296875	142.669327
864.252136	194.157684
864.207520	99.044174
864.162781	102.989433
864.118103	110.893921
864.073425	126.715599
864.028687	158.369125
863.984009	130.633591
863.939331	142.486526
863.894653	71.231850
863.849976	142.440857
863.805237	150.330154
863.760559	102.840988
863.715820	134.462814
863.671143	201.661896
863.626404	122.559158
863.581665	83.010643
863.536987	146.233398
863.492249	102.742142
863.447571	130.382584
863.402832	122.460983
863.358093	142.189957
863.313354	110.574463
863.268616	86.866013
863.223877	86.852089
863.179138	114.468498
863.134338	118.396706
863.089600	86.810341
863.044861	106.522888
863.000183	71.003876
862.955444	110.432770
862.910645	130.132050
862.865906	55.198685
862.821106	122.206070
862.776367	114.303482
862.731628	122.166901
862.686890	106.386375
862.642090	122.127739
862.597290	110.291245
862.552490	145.718643
862.507751	98.442757
862.463013	185.042725
862.418213	118.093445
862.373352	157.432678
862.328613	125.925957
862.283813	173.120438
862.239014	157.356995
862.194275	74.732590
862.149475	106.181923
862.104675	102.232864
862.059814	86.490868
862.015076	176.884781
861.970215	161.135849
861.925415	180.757584
861.880615	110.008713
861.835754	153.201859
861.790955	145.322052
861.746155	161.006729
861.701294	117.790916
