#Wave		#Intensity
899.963257	49.688896
899.920715	117.446487
899.878235	58.713818
899.835815	72.251564
899.793274	54.179977
899.750793	67.714104
899.708252	81.243881
899.665771	72.205193
899.623230	40.608906
899.580688	94.738907
899.538208	58.638481
899.495667	36.079430
899.453186	81.165688
899.410645	67.627220
899.368103	76.631882
899.325623	90.140694
899.283020	54.075737
899.240540	94.617355
899.197998	72.077843
899.155396	49.545567
899.112854	72.054718
899.070312	63.037762
899.027771	49.521721
898.985229	72.020042
898.942688	81.009544
898.900085	49.497890
898.857544	71.985374
898.814941	67.475464
898.772400	58.469353
898.729797	62.956894
898.687256	49.458195
898.644714	53.945736
898.602112	31.463299
898.559570	58.422466
898.516907	71.893036
898.474304	53.911129
898.431763	44.918732
898.389221	71.858444
898.346558	80.827774
898.304016	80.814812
898.261353	71.823860
898.218750	62.835800
898.176147	76.288376
898.133606	53.841976
898.090942	53.833340
898.048340	44.853920
898.005676	80.724106
897.963074	85.195107
897.920471	94.147911
897.877808	71.720238
897.835205	80.672325
897.792542	58.253998
897.749939	49.283939
897.707275	80.633507
897.664673	94.057335
897.622009	80.607643
897.579346	58.207294
897.536743	67.151489
897.494080	93.997009
897.451477	62.654621
897.408752	53.695347
897.366089	58.160629
897.323425	84.990364
897.280823	62.614433
897.238098	80.491356
897.195435	53.652302
897.152710	71.524925
897.110046	67.043861
897.067383	67.033112
897.024719	44.681576
896.982056	75.946495
896.939331	84.867760
896.896667	93.786171
896.854004	58.048794
896.811279	71.433212
896.768555	58.030178
896.725830	58.020870
896.683167	58.011566
896.640442	62.463974
896.597778	66.914955
896.555054	84.745354
896.512268	53.514797
896.469604	98.094727
896.426880	80.246452
896.384094	93.605850
896.341431	84.677429
896.298706	84.663849
896.255920	62.373882
896.213257	71.273010
896.170532	84.623123
896.127747	71.250153
896.085022	71.238731
896.042236	75.679016
895.999512	66.764893
895.956787	71.204468
895.913940	88.991310
895.871216	84.528191
895.828430	62.273945
895.785767	80.053658
895.742981	93.380966
895.700195	84.473991
895.657410	102.241592
895.614624	84.446907
895.571838	71.101784
895.529114	84.419830
895.486267	106.618477
895.443481	71.067589
895.400757	62.174171
895.357910	102.126907
895.315125	115.429298
895.272339	88.777534
895.229553	71.010643
895.186768	79.874161
895.143921	93.171585
895.101135	93.156647
895.058350	102.012352
895.015442	62.084518
894.972656	84.244057
894.929871	70.930992
894.887024	53.189713
894.844238	79.771782
894.801392	75.327942
894.758545	66.455170
894.715698	79.733421
894.672913	88.578491
894.630066	53.138577
894.587219	66.412575
894.544373	97.389488
894.501526	70.817368
894.458679	84.082146
894.415894	106.192001
894.372986	75.207275
894.330078	110.581207
894.287292	79.605705
894.244446	79.592949
894.201538	75.159065
894.158691	70.726608
894.115845	101.653198
894.072876	92.798920
894.030029	66.274315
893.987183	110.439491
893.944275	114.838661
893.901428	114.820251
893.858521	75.062744
893.815552	110.368698
893.772766	75.038689
893.729858	97.093323
893.686951	114.728264
893.644043	88.238365
893.601135	74.990593
893.558167	70.568069
893.515320	101.425339
893.472412	105.818176
893.429504	88.167679
893.386536	88.153549
893.343689	83.732452
893.300720	74.906502
893.257812	92.516731
893.214844	118.931023
893.171936	88.082939
893.129028	136.506668
893.086060	66.041031
893.043091	105.648712
893.000183	101.230461
892.957275	88.012383
892.914307	114.397758
892.871338	74.786545
892.828430	109.962593
892.785461	114.342766
892.742493	87.941879
892.699524	105.513344
892.656555	87.913696
892.613525	101.084549
892.570618	131.828293
892.527649	101.052162
892.484619	79.071625
892.441711	109.804108
892.398682	96.612129
892.355652	100.987404
892.312744	114.141380
892.269775	127.291138
892.226746	114.104805
892.183777	83.370918
892.140686	87.744804
892.097717	92.117279
892.054749	105.260017
892.011719	131.553940
891.968750	122.764008
891.925720	105.209435
891.882751	122.724670
891.839722	96.411079
891.796692	109.540489
891.753662	122.665688
891.710632	113.885605
891.667603	140.144440
891.624573	105.091492
891.581482	109.452759
891.538513	161.964127
891.495422	109.417694
891.452454	126.904190
891.409363	118.133247
891.366272	131.238129
891.323242	109.347588
891.280273	104.956863
891.237122	148.665070
891.194092	118.038643
891.151062	122.390831
891.107971	122.371223
891.064880	144.200119
891.021851	126.701019
890.978760	144.153931
890.935730	148.498428
890.892639	139.740845
890.849548	122.253647
890.806458	113.503052
890.763367	130.944077
890.720276	113.466690
890.677185	100.358299
890.634155	178.870926
890.591003	122.136185
890.547913	139.561844
890.504761	130.818268
890.461731	122.077492
890.418579	100.261879
890.375488	117.679871
890.332336	100.229759
890.289246	108.927933
890.246155	78.415550
890.203003	121.960205
890.159912	135.005737
890.116760	130.629791
890.073669	130.608856
890.030457	126.235008
889.987366	143.623718
889.944214	147.952255
889.901062	108.770996
889.857910	134.854431
889.814758	126.133942
889.771606	108.718735
889.728516	139.137695
889.685364	130.420700
889.642212	121.706482
889.598999	91.265244
889.555908	143.393829
889.512695	173.782867
889.469543	139.004028
889.426392	104.236320
889.383240	151.986954
889.340027	99.861145
889.296875	125.891708
889.253723	104.169556
889.210449	117.171982
889.167297	134.509247
889.124146	121.472763
889.080933	95.427597
889.037781	117.096924
888.994507	125.750633
888.951294	134.401550
888.908081	117.040672
888.864868	156.029236
888.821716	130.003540
888.778503	138.648224
888.735291	121.297775
888.692078	121.278343
888.648804	151.573654
888.605652	121.239502
888.562378	116.890793
888.519226	138.515045
888.475952	125.509163
888.432739	108.180222
888.389465	138.448502
888.346252	125.448868
888.303040	112.453384
888.259766	142.706436
888.216492	121.064857
888.173279	116.722420
888.130066	133.993164
888.086731	112.363365
888.043457	151.234146
888.000244	120.967949
887.956970	120.948570
887.913696	133.885910
887.870483	116.591629
887.827209	146.795578
887.783936	125.187943
887.740601	125.167892
887.697327	129.463287
887.654053	133.757309
887.610779	120.793709
887.567505	150.967957
887.524231	112.129662
887.480957	86.239777
887.437622	125.027649
887.394348	150.871277
887.351074	107.747940
887.307739	129.276825
887.264404	124.947578
887.221130	112.004028
887.177734	142.136200
887.134460	133.500504
887.091125	172.231125
887.047852	129.152664
887.004517	120.523178
886.961182	133.415009
886.917908	154.908752
886.874573	150.581619
886.831238	163.462433
886.787842	90.320038
886.744568	137.608490
886.701172	141.886032
886.657837	159.058868
886.614502	189.120789
886.571167	111.735306
886.527832	128.904709
886.484436	146.068604
886.441101	146.045212
886.397766	180.379913
886.354370	167.468811
886.310974	137.388306
886.267639	128.780914
886.224304	154.512344
886.180908	158.778931
886.137451	141.590958
886.094177	167.307983
886.050781	175.859711
886.007385	158.677261
885.963989	132.924530
885.920593	201.498459
885.877197	145.741501
885.833862	154.289825
885.790405	162.835403
885.747009	149.955963
885.703613	205.620972
885.660217	188.455704
885.616821	167.013535
885.573364	149.859955
885.529968	205.489304
885.486511	111.288887
885.443115	141.228668
885.399719	188.274734
885.356323	192.522873
885.312805	222.435257
885.269409	205.291977
885.225952	218.087799
885.182556	149.644135
885.139099	153.895035
885.095642	136.773697
885.052185	205.127686
885.008728	136.729904
884.965332	153.796509
884.921875	209.300613
884.878418	175.101044
884.835022	187.883240
884.791504	187.853149
884.748108	157.942139
884.704590	187.793015
884.661072	217.634323
884.617615	209.066162
884.574219	187.702820
884.530762	208.999222
884.487244	204.701157
884.443726	208.932312
884.400269	191.845886
884.356812	200.340286
884.313232	221.617599
884.269836	242.888092
884.226257	195.983566
884.182739	212.991516
884.139343	208.698273
884.095825	191.630997
884.052307	229.920380
884.008789	161.769913
883.965332	217.077499
883.921753	242.577179
883.878235	221.263062
883.834717	199.955750
883.791199	204.177429
883.747681	229.662842
883.704163	212.616730
883.660645	204.079376
883.617126	204.046707
883.573547	221.015213
883.530029	178.483704
883.486511	203.948730
883.442932	220.909088
883.399414	229.368866
883.355896	233.579025
883.312317	267.511322
883.268738	220.767654
883.225220	220.732315
883.181641	229.185318
883.138062	233.392120
883.094482	212.140686
883.050964	233.317398
883.007385	233.280045
882.963745	165.390289
882.920227	224.725174
882.876648	245.886292
882.833069	220.414490
882.789429	220.379196
882.745911	207.631775
882.702332	245.728882
882.658691	228.745438
882.615112	241.414856
882.571533	262.549561
882.527954	207.465622
882.484314	279.398773
882.440735	279.354034
882.397156	228.525803
882.353516	232.720505
882.309875	253.836273
882.266296	228.416077
882.222656	249.525757
882.179016	194.514359
882.135437	240.990082
882.091797	215.588196
882.048218	215.553680
882.004517	207.067444
881.960876	232.385422
881.917236	223.899200
881.873657	223.863358
881.829956	253.389648
881.786316	232.236664
881.742737	265.973969
881.699036	219.498917
881.655396	227.904694
881.611694	227.868210
881.568054	248.927261
881.524414	219.358398
881.480774	177.145737
881.437073	240.373581
881.393372	240.335098
881.349731	248.728088
881.306091	236.043106
881.262390	214.933411
881.218689	210.685303
881.174988	235.929764
881.131348	206.405502
881.087646	206.372452
881.044006	210.550430
881.000244	202.096054
880.956604	197.854050
880.912903	159.941498
880.869141	227.248901
880.825500	172.513214
880.781799	201.934357
880.738098	197.695740
880.694397	193.458481
880.650574	189.222565
880.606934	239.643539
880.563232	210.179977
880.519470	226.958038
880.475769	210.112701
880.432007	184.869583
880.388306	197.442703
880.344604	189.010635
880.300842	209.978195
880.257080	226.740158
880.213379	176.325226
880.169617	201.482285
880.125854	176.268768
880.082092	180.436768
880.038391	222.363205
879.994629	197.158447
879.950867	209.709442
879.907104	188.708298
879.863342	180.292389
879.819580	180.263535
879.775818	197.000687
879.732056	167.633331
879.688293	163.416336
879.644531	125.684746
879.600708	159.175201
879.556946	184.278625
879.513123	163.311722
879.469299	154.911957
879.425598	142.328751
879.381775	154.862366
879.338013	167.391983
879.294189	133.892151
879.250427	150.604553
879.206604	146.397659
879.162781	142.192108
879.119019	150.532242
879.075134	158.869705
879.031372	137.943710
878.987549	162.998291
878.943726	142.078339
878.899963	158.768005
878.856140	137.855408
878.812317	158.717178
878.768433	158.691772
878.724609	154.490952
878.680786	179.514786
878.636963	154.441498
878.593079	146.069916
878.549255	112.664467
878.505432	158.539429
878.461609	145.999786
878.417725	129.293396
878.373840	133.442780
878.330017	175.115616
878.286194	125.062561
878.242310	145.882965
878.198425	150.027039
878.154602	141.669510
878.110718	149.979004
878.066895	129.127914
878.022949	116.612991
877.979065	170.727402
877.935181	79.104912
877.891296	162.347260
877.847473	133.186676
877.803589	145.649612
877.759705	112.340286
877.715759	104.002136
877.671936	116.463745
877.627991	137.238876
877.584106	108.110283
877.540222	133.037521
877.496277	116.389191
877.452393	124.682747
877.408447	83.108521
877.364563	137.107117
877.320679	112.160591
877.276672	120.449501
877.232788	128.735748
877.188904	161.931946
877.144958	112.088791
877.101013	107.920074
877.057068	78.852043
877.013184	95.437195
876.969238	99.570702
876.925354	87.110413
876.881348	128.570984
876.837402	103.669678
876.793457	116.091454
876.749512	91.200111
876.705566	95.330307
876.661560	91.170914
876.617676	140.877945
876.573730	95.284538
876.529724	99.411423
876.485779	91.112549
876.441833	95.238785
876.397888	124.204613
876.353821	107.626770
876.309875	99.331879
876.265869	103.454147
876.221924	91.025078
876.177917	124.105232
876.133972	95.132118
876.089966	82.710335
876.046021	86.831947
876.002014	95.086433
875.958008	111.605339
875.913940	103.321732
875.869995	107.437401
875.825989	95.025566
875.781982	82.617699
875.737976	115.646263
875.693970	103.239059
875.649902	94.964729
875.605896	99.077774
875.561890	86.679169
875.517883	103.172974
875.473877	107.282715
875.429810	136.144730
875.385864	115.498245
875.341736	111.355476
875.297791	82.472336
875.253723	74.213219
875.209656	61.834446
875.165588	140.135651
875.121521	82.419533
875.077454	123.609512
875.033447	140.068359
874.989380	123.569939
874.945374	90.603447
874.901306	119.412697
874.857239	123.510605
874.813110	123.490829
874.769104	115.239655
874.725037	115.221207
874.680969	115.202766
874.636841	119.298050
874.592773	115.165878
874.548706	127.484673
874.504639	98.682007
874.460571	135.666046
874.416443	119.202583
874.372437	123.293282
874.328308	152.037369
874.284180	119.145348
874.240051	143.773087
874.196045	172.500092
874.151917	127.301109
874.107788	119.069069
874.063660	143.681046
874.019531	139.553528
873.975464	131.323471
873.931335	102.580032
873.887207	106.666153
873.843079	118.954742
873.798950	131.239395
873.754822	131.218384
873.710754	110.697784
873.666565	118.878586
873.622437	122.958160
873.578308	102.448730
873.534180	139.307968
873.489990	122.899109
873.445862	147.455322
873.401672	135.145737
873.357605	151.502777
873.313416	155.572540
873.269287	122.800766
873.225098	147.337326
873.180969	155.497833
873.136780	130.924576
873.092590	151.357300
873.048462	163.603317
873.004272	139.040558
872.960083	139.018295
872.915894	110.379211
872.871765	126.711395
872.827576	102.170250
872.783386	110.326202
872.739197	138.907043
872.695007	102.121185
872.650818	183.788696
872.606567	138.840347
872.562439	110.237915
872.518188	167.371506
872.474060	155.099976
872.429810	122.427750
872.385559	167.291138
872.341370	134.627396
872.297241	167.237564
872.252930	122.349358
872.208740	154.951035
872.164551	167.157257
872.120361	142.672363
872.076050	154.876633
872.031860	130.401535
871.987610	171.124619
871.943359	154.802246
871.899109	171.069824
871.854919	114.028290
871.810608	138.440750
871.766418	142.489716
871.722168	150.607864
871.677917	146.513931
871.633667	142.421280
871.589417	117.987312
871.545166	158.647186
871.500916	138.285660
871.456665	130.130371
871.412354	154.505066
871.368103	182.937241
871.323853	158.520218
871.279602	154.430862
871.235229	138.152863
871.190979	105.629387
871.146790	121.860550
871.102417	146.209244
871.058105	158.367981
871.013916	146.162430
870.969604	174.554947
870.925293	133.939316
870.880981	109.569168
870.836731	150.126297
870.792419	166.329529
870.748047	137.909714
870.703796	133.832123
870.659485	125.700943
870.615173	154.060364
870.570862	125.660690
870.526550	137.799332
870.482178	113.463631
870.437866	101.290596
870.393555	162.039001
870.349243	117.459465
870.304932	97.192261
870.260559	133.617966
870.216248	113.354660
870.171875	97.145576
870.127563	121.412529
870.083252	125.439522
870.038879	125.419434
869.994507	60.677105
869.950195	125.379272
869.905823	97.052277
869.861511	84.907143
869.817078	97.021194
869.772766	97.005661
869.728394	80.825104
869.684021	113.137024
869.639648	113.118904
869.595276	109.061478
869.550903	96.928009
869.506531	96.912491
869.462158	96.896965
869.417786	76.697815
869.373413	80.721611
869.328979	80.708687
869.284607	92.800125
869.240234	80.682838
869.195862	76.636421
869.151428	88.722694
869.107056	100.805099
869.062622	80.631165
869.018250	72.556427
868.973877	44.332935
868.929443	56.414700
868.885010	48.347713
868.840637	64.453293
868.796143	40.276855
868.751770	44.297447
868.707336	60.395935
868.662903	72.463516
868.618469	64.401695
868.574036	56.342461
868.529663	36.214352
868.485229	76.440277
868.440735	60.337921
868.396301	60.328255
868.351868	96.509750
868.307434	48.247147
868.263000	52.259369
868.218506	96.463387
868.174072	64.298622
868.129578	44.198223
868.085144	40.173767
868.040710	60.250999
867.996277	64.257439
867.951721	48.185360
867.907288	52.192444
867.862793	44.155766
867.818359	36.121658
867.773865	36.115871
867.729370	32.097855
867.684937	40.115891
867.640442	48.131359
867.595947	56.144260
867.551514	48.115944
867.506958	68.153336
867.462463	48.100529
867.417969	32.061882
867.373535	44.078026
867.328979	52.083870
867.284485	32.046478
867.239929	32.041344
867.195435	56.063370
867.150940	56.054390
867.106445	28.022705
867.061890	32.020821
867.017395	48.023537
866.972839	52.017162
866.928345	48.008152
866.883789	60.000576
866.839294	43.993374
866.794739	31.990055
866.750183	51.975513
866.705688	35.977283
866.661133	39.968357
866.616638	47.954342
866.572021	23.973330
866.527527	23.969490
866.482910	47.931301
866.438416	27.955446
866.393860	35.936958
866.349304	43.915913
866.304749	51.892311
866.260193	35.919689
866.215637	23.942623
866.171021	23.938787
866.126465	35.902428
866.081909	23.931118
866.037292	23.927284
865.992676	59.808628
865.948181	39.866032
865.903564	39.859642
865.859009	47.823910
865.814392	27.892811
865.769836	39.840488
865.725159	47.800926
865.680603	0.000000
865.635986	55.749878
865.591431	43.796459
865.546753	31.846867
865.502197	19.901102
865.457581	39.795830
865.412964	55.705235
865.368347	15.913231
865.323792	39.776703
865.279114	39.770329
865.234497	39.763958
865.189880	47.709103
865.145264	27.825851
865.100647	27.821392
865.055969	55.633869
865.011353	43.705322
864.966675	47.670895
864.922058	27.803566
864.877441	27.799110
864.832825	15.882661
864.788147	23.820173
864.743469	39.693928
864.698853	47.625080
864.654175	79.362419
864.609497	43.642334
864.564880	39.668491
864.520203	47.594563
864.475586	47.586937
864.430908	79.298851
864.386169	35.678764
864.341492	39.636719
864.296875	51.519478
864.252136	87.172844
864.207520	59.426502
864.162781	55.455849
864.118103	47.525967
864.073425	59.397938
864.028687	79.184563
863.984009	51.461716
863.939331	83.117142
863.894653	51.445225
863.849976	19.783453
863.805237	90.989304
863.760559	39.554226
863.715820	71.186195
863.671143	63.266479
863.626404	47.442253
863.581665	51.387539
863.536987	39.522541
863.492249	47.419449
863.447571	39.509872
863.402832	19.751772
863.358093	75.044701
863.313354	31.592705
863.268616	55.278374
863.223877	51.321690
863.179138	71.049416
863.134338	51.305241
863.089600	39.459244
863.044861	63.124672
863.000183	59.169895
862.955444	67.048470
862.910645	59.150928
862.865906	74.912498
862.821106	59.131969
862.776367	35.473495
862.731628	43.349545
862.686890	27.581652
862.642090	74.852486
862.597290	59.084595
862.552490	55.136784
862.507751	63.003365
862.463013	51.182030
862.418213	27.555138
862.373352	47.229805
862.328613	43.287048
862.283813	23.607332
862.239014	39.339249
862.194275	47.199532
862.149475	47.191963
862.104675	43.252365
862.059814	43.245434
862.015076	47.169273
861.970215	51.091854
861.925415	11.788538
861.880615	43.217709
861.835754	54.995541
861.790955	27.493362
861.746155	31.415949
861.701294	23.558184
861.656494	58.886017
861.611694	35.325947
861.566833	51.018188
861.522034	27.466927
861.477173	47.078613
861.432373	43.148476
861.387512	39.219601
861.342651	31.370649
