#Wave		#Intensity
899.963257	94.860619
899.920715	72.274757
899.878235	63.230267
899.835815	9.031446
899.793274	63.209972
899.750793	63.199829
899.708252	67.703232
899.665771	63.179546
899.623230	99.266212
899.580688	49.625141
899.538208	85.702400
899.495667	49.609215
899.453186	49.601254
899.410645	49.593296
899.368103	67.616371
899.325623	49.577381
899.283020	27.037868
899.240540	27.033529
899.197998	67.572983
899.155396	94.586990
899.112854	22.517099
899.070312	49.529671
899.027771	54.023697
898.985229	76.521294
898.942688	31.503712
898.900085	85.496353
898.857544	44.990860
898.814941	26.990187
898.772400	62.966995
898.729797	31.478447
898.687256	62.946793
898.644714	22.477390
898.602112	80.905624
898.559570	53.928429
898.516907	80.879669
898.474304	22.462969
898.431763	58.394352
898.389221	67.367287
898.346558	53.885185
898.304016	58.366253
898.261353	67.334869
898.218750	103.230240
898.176147	85.263474
898.133606	85.249794
898.090942	44.861118
898.048340	40.368530
898.005676	58.300743
897.963074	85.195107
897.920471	67.248505
897.877808	89.650291
897.835205	62.745140
897.792542	35.848614
897.749939	49.283939
897.707275	71.674232
897.664673	62.704891
897.622009	31.347418
897.579346	49.252327
897.536743	49.244427
897.494080	17.904192
897.451477	62.654621
897.408752	44.746120
897.366089	53.686733
897.323425	22.365885
897.280823	80.504272
897.238098	89.434845
897.195435	31.297174
897.152710	49.173386
897.110046	71.513458
897.067383	75.970863
897.024719	62.554203
896.982056	58.076733
896.939331	53.600693
896.896667	53.592098
896.854004	75.909958
896.811279	40.181183
896.768555	58.030178
896.725830	53.557728
896.683167	107.098274
896.640442	75.849113
896.597778	57.992962
896.555054	44.602818
896.512268	89.191330
896.469604	84.718178
896.426880	66.872047
896.384094	49.031635
896.341431	57.937187
896.298706	93.575829
896.255920	49.008053
896.213257	57.909321
896.170532	66.807732
896.127747	66.797020
896.085022	71.238731
896.042236	71.227303
895.999512	40.058937
895.956787	26.701675
895.913940	57.844353
895.871216	48.937374
895.828430	57.825806
895.785767	84.501083
895.742981	35.573700
895.700195	40.013996
895.657410	31.117006
895.614624	71.113182
895.571838	57.770199
895.529114	48.874638
895.486267	26.654619
895.443481	48.858967
895.400757	17.764050
895.357910	31.082102
895.315125	31.077118
895.272339	44.388767
895.229553	53.257980
895.186768	48.811989
895.143921	44.367420
895.101135	22.180155
895.058350	97.577034
895.015442	62.084518
894.972656	70.942360
894.929871	57.631428
894.887024	53.189713
894.844238	84.203545
894.801392	79.758995
894.758545	44.303448
894.715698	79.733421
894.672913	70.862793
894.630066	84.136078
894.587219	48.702553
894.544373	22.133976
894.501526	88.521706
894.458679	53.104511
894.415894	57.520664
894.372986	75.207275
894.330078	35.385986
894.287292	57.493011
894.244446	22.109152
894.201538	30.947851
894.158691	75.147018
894.115845	57.456158
894.072876	75.122932
894.030029	57.437740
893.987183	39.758217
893.944275	70.669945
893.901428	83.907104
893.858521	30.908190
893.815552	70.635971
893.772766	75.038689
893.729858	61.786663
893.686951	52.951508
893.644043	83.826447
893.601135	70.579384
893.558167	22.052521
893.515320	48.507771
893.472412	44.090908
893.429504	57.308994
893.386536	79.338196
893.343689	35.255768
893.300720	39.656384
893.257812	61.677822
893.214844	44.048527
893.171936	79.274643
893.129028	52.841293
893.086060	61.638294
893.043091	48.422329
893.000183	52.815891
892.957275	52.807426
892.914307	43.999138
892.871338	48.391296
892.828430	48.383541
892.785461	26.386793
892.742493	65.956413
892.699524	61.549454
892.656555	39.561165
892.613525	30.764864
892.570618	96.674080
892.527649	87.871445
892.484619	39.535812
892.441711	17.568657
892.398682	35.131683
892.355652	39.516811
892.312744	61.460743
892.269775	52.672195
892.226746	35.109169
892.183777	57.043262
892.140686	39.485161
892.097717	61.411518
892.054749	21.929171
892.011719	65.776970
891.968750	61.382004
891.925720	39.453537
891.882751	48.213264
891.839722	65.734825
891.796692	43.816196
891.753662	70.094681
891.710632	21.901077
891.667603	43.795135
891.624573	43.788120
891.581482	78.805992
891.538513	8.754818
891.495422	74.404030
891.452454	43.760063
891.409363	74.380188
891.366272	21.873022
891.323242	61.234650
891.280273	30.612419
891.237122	30.607515
891.194092	61.205223
891.151062	83.050919
891.107971	48.074409
891.064880	21.848503
891.021851	39.321007
890.978760	61.156208
890.935730	65.514015
890.892639	39.302109
890.849548	52.394421
890.806458	69.848030
890.763367	65.472038
890.720276	39.276932
890.677185	34.907234
890.634155	34.901642
890.591003	91.602135
890.547913	43.613075
890.504761	61.048527
890.461731	74.118477
890.418579	52.310543
890.375488	43.585136
890.332336	65.367233
890.289246	78.428116
890.246155	34.851357
890.203003	52.268658
890.159912	43.550240
890.116760	60.960567
890.073669	43.536289
890.030457	78.352768
889.987366	82.692451
889.944214	56.569981
889.901062	30.455879
889.857910	43.501431
889.814758	69.591141
889.771606	73.928741
889.728516	65.220795
889.685364	43.473564
889.642212	34.773281
889.598999	52.151566
889.555908	60.833748
889.512695	39.101147
889.469543	26.063255
889.426392	47.774979
889.383240	39.082359
889.340027	86.835777
889.296875	56.434216
889.253723	56.425175
889.210449	34.717625
889.167297	52.068092
889.124146	43.383129
889.080933	56.389034
889.037781	104.086159
888.994507	65.043427
888.951294	47.690876
888.908081	56.352917
888.864868	47.675598
888.821716	21.667255
888.778503	12.998272
888.735291	77.977142
888.692078	38.982327
888.648804	47.637432
888.605652	69.279716
888.562378	82.256485
888.519226	51.943142
888.475952	103.869652
888.432739	47.599297
888.389465	69.224251
888.346252	64.887344
888.303040	47.576431
888.259766	47.568813
888.216492	34.589958
888.173279	34.584419
888.130066	30.256521
888.086731	30.251675
888.043457	43.209759
888.000244	17.281136
887.956970	25.917551
887.913696	51.826801
887.870483	82.045959
887.827209	8.635034
887.783936	86.336510
887.740601	0.000000
887.697327	64.731644
887.654053	64.721275
887.610779	51.768730
887.567505	47.447071
887.524231	43.126793
887.480957	34.495911
887.437622	51.735577
887.394348	77.590942
887.351074	51.719009
887.307739	56.019955
887.264404	56.010986
887.221130	90.464790
887.177734	73.221680
887.134460	81.822884
887.091125	55.975117
887.047852	55.966152
887.004517	51.652790
886.961182	90.377907
886.917908	60.242290
886.874573	86.046638
886.831238	60.223000
886.787842	64.514313
886.744568	38.702389
886.701172	42.995766
886.657837	51.586658
886.614502	60.174797
886.571167	68.760185
886.527832	55.858704
886.484436	38.665218
886.441101	73.022606
886.397766	0.000000
886.354370	-4.294072
886.310974	21.466923
886.267639	68.683151
886.224304	30.044067
886.180908	68.661156
886.137451	64.359528
886.094177	55.769329
886.050781	60.049660
886.007385	55.751469
885.963989	64.318321
885.920593	60.020817
885.877197	47.151665
885.833862	90.002396
885.790405	25.710854
885.747009	68.551300
885.703613	42.837700
885.660217	59.963181
885.616821	59.953579
885.573364	47.098843
885.529968	29.967192
885.486511	72.765808
885.443115	111.271072
885.399719	68.463539
885.356323	42.782860
885.312805	55.608814
885.269409	8.553833
885.225952	59.867241
885.182556	64.133202
885.139099	89.772110
885.095642	102.580269
885.052185	51.281921
885.008728	51.273712
884.965332	38.449127
884.921875	68.343056
884.878418	76.873634
884.835022	59.781029
884.791504	51.232677
884.748108	59.761890
884.704590	72.556389
884.661072	51.208076
884.617615	38.399906
884.574219	59.723625
884.530762	42.652905
884.487244	63.969112
884.443726	38.375320
884.400269	38.369179
884.356812	68.200951
884.313232	25.571262
884.269836	72.440308
884.226257	55.386662
884.182739	72.417114
884.139343	59.628078
884.095825	63.876999
884.052307	72.382339
884.008789	63.856544
883.965332	68.102745
883.921753	34.045921
883.878235	55.315765
883.834717	38.289398
883.791199	42.536964
883.747681	85.060310
883.704163	68.037354
883.660645	80.781425
883.617126	46.760704
883.573547	59.504097
883.530029	67.993797
883.486511	63.733978
883.442932	29.737761
883.399414	72.208717
883.355896	38.222023
883.312317	46.708328
883.268738	50.946381
883.225220	25.469112
883.181641	50.930073
883.138062	63.652397
883.094482	50.913765
883.050964	89.084824
883.007385	29.690187
882.963745	38.166988
882.920227	84.801949
882.876648	38.154770
882.833069	29.671181
882.789429	4.238061
882.745911	84.747658
882.702332	38.130344
882.658691	67.776421
882.615112	80.471619
882.571533	63.520054
882.527954	59.275894
882.484314	59.266403
882.440735	29.628458
882.397156	16.927837
882.353516	84.625641
882.309875	42.306046
882.266296	63.448910
882.222656	76.126503
882.179016	59.200024
882.135437	50.734753
882.091797	46.499413
882.048218	50.718513
882.004517	33.806931
881.960876	76.053413
881.917236	76.041237
881.873657	46.462208
881.829956	59.124252
881.786316	97.117149
881.742737	33.774471
881.699036	63.316994
881.655396	63.306858
881.611694	63.296726
881.568054	54.848381
881.524414	25.310585
881.480774	71.701843
881.437073	54.822044
881.393372	42.164051
881.349731	71.667412
881.306091	59.010777
881.262390	67.430092
881.218689	84.274124
881.174988	80.047600
881.131348	33.698856
881.087646	54.751877
881.044006	67.376137
881.000244	75.786018
880.956604	67.354568
880.912903	84.179733
880.869141	63.124695
880.825500	67.322227
880.781799	33.655727
880.738098	25.237755
880.694397	58.878666
880.650574	54.664295
880.606934	16.817091
880.563232	67.257591
880.519470	96.667313
880.475769	42.022541
880.432007	58.822140
880.388306	63.013630
880.344604	8.400473
880.300842	62.993458
880.257080	33.591133
880.213379	62.973293
880.169617	67.160759
880.125854	41.968758
880.082092	29.373426
880.038391	62.932980
879.994629	109.066376
879.950867	54.524456
879.907104	41.935177
879.863342	88.049774
879.819580	50.306103
879.775818	33.532032
879.732056	54.480831
879.688293	41.901623
879.644531	67.031868
879.600708	75.398781
879.556946	54.445957
879.513123	71.187164
879.469299	66.988953
879.425598	29.302977
879.381775	33.483757
879.338013	62.771992
879.294189	41.841297
879.250427	62.751896
879.206604	71.107430
879.162781	41.821205
879.119019	45.995964
879.075134	37.627037
879.031372	50.161350
878.987549	62.691650
878.943726	104.469360
878.899963	37.602951
878.856140	50.129242
878.812317	33.414143
878.768433	54.289291
878.724609	91.859482
878.680786	37.572865
878.636963	45.915039
878.593079	45.907688
878.549255	50.073097
878.505432	41.720901
878.461609	75.085602
878.417725	58.390564
878.373840	66.721390
878.330017	91.727226
878.286194	91.712547
878.242310	62.521271
878.198425	41.674175
878.154602	8.333501
878.110718	87.487755
878.066895	54.150417
878.022949	37.482750
877.979065	87.445747
877.935181	54.124416
877.891296	58.278503
877.847473	58.269173
877.803589	41.614174
877.759705	58.250519
877.715759	0.000000
877.671936	41.594196
877.627991	41.587536
877.584106	74.845581
877.540222	54.046490
877.496277	83.135139
877.452393	66.497459
877.408447	49.865112
877.364563	58.166653
877.320679	70.619629
877.276672	49.841171
877.232788	29.069363
877.188904	29.064709
877.144958	41.514366
877.101013	58.110809
877.057068	66.401726
877.013184	74.689980
876.969238	58.082909
876.925354	66.369843
876.881348	53.916862
876.837402	74.642166
876.793457	16.584494
876.749512	53.890976
876.705566	70.461533
876.661560	70.450256
876.617676	62.152039
876.573730	62.142090
876.529724	62.132141
876.485779	70.405151
876.441833	45.548985
876.397888	37.261383
876.353821	70.371346
876.309875	66.221252
876.265869	70.348824
876.221924	62.062553
876.177917	62.052616
876.133972	45.497967
876.089966	53.761719
876.046021	62.022823
876.002014	62.012894
875.958008	33.068249
875.913940	57.860172
875.869995	45.454285
875.825989	33.052372
875.781982	45.439735
875.737976	49.562683
875.693970	41.295624
875.649902	86.706932
875.605896	70.180084
875.561890	57.786114
875.517883	37.142269
875.473877	82.525162
875.429810	37.130379
875.385864	45.374310
875.341736	78.361259
875.297791	37.112549
875.253723	49.475479
875.209656	53.589855
875.165588	41.216366
875.121521	41.209766
875.077454	53.564121
875.033447	78.273491
874.989380	57.665974
874.945374	24.710032
874.901306	41.176792
874.857239	45.287220
874.813110	37.047249
874.769104	41.157021
874.725037	53.495564
874.680969	53.487000
874.636841	53.478436
874.592773	53.469875
874.548706	37.011681
874.504639	61.676258
874.460571	65.777473
874.416443	78.098244
874.372437	45.207535
874.328308	41.091179
874.284180	61.626904
874.240051	24.646814
874.196045	61.607174
874.151917	36.958385
874.107788	49.269958
874.063660	36.946552
874.019531	49.254185
873.975464	49.246300
873.931335	98.476830
873.887207	69.743256
873.843079	77.935867
873.798950	32.809849
873.754822	69.709763
873.710754	16.399672
873.666565	73.786705
873.622437	61.479080
873.578308	49.175388
873.534180	49.167515
873.489990	24.579823
873.445862	49.151775
873.401672	40.953255
873.357605	61.420048
873.313416	40.940144
873.269287	20.466793
873.225098	53.205143
873.180969	45.012531
873.136780	53.188110
873.092590	53.179596
873.048462	81.801659
873.004272	36.804855
872.960083	16.355095
872.915894	24.528713
872.871765	57.224503
872.827576	49.041721
872.783386	57.206181
872.739197	40.855015
872.695007	57.187862
872.650818	57.178707
872.606567	85.754326
872.562439	40.828857
872.518188	57.151249
872.474060	44.897362
872.429810	85.699425
872.385559	69.364616
872.341370	48.955418
872.297241	53.026546
872.252930	44.861431
872.208740	65.242546
872.164551	40.770061
872.120361	48.916241
872.076050	77.438316
872.031860	28.525337
871.987610	48.892746
871.943359	73.327377
871.899109	61.096367
871.854919	81.448776
871.810608	57.005016
871.766418	89.564964
871.722168	44.775314
871.677917	56.977638
871.633667	36.622616
871.589417	28.479696
871.545166	52.882397
871.500916	61.008381
871.456665	56.932037
871.412354	73.186615
871.368103	36.587448
871.323853	0.000000
871.279602	65.023521
871.235229	56.886471
871.190979	56.877361
871.146790	69.054314
871.102417	32.490944
871.058105	56.850044
871.013916	60.901009
870.969604	56.831841
870.925293	85.234108
870.880981	113.627281
870.836731	40.574673
870.792419	36.511360
870.748047	56.786354
870.703796	52.721741
870.659485	56.768169
870.615173	85.138618
870.570862	32.428566
870.526550	64.846748
870.482178	68.888634
870.437866	56.722733
870.393555	40.509750
870.349243	44.553589
870.304932	44.546455
870.260559	24.294174
870.216248	72.870857
870.171875	60.715988
870.127563	60.706264
870.083252	48.557236
870.038879	68.778397
869.994507	40.451405
869.950195	80.889854
869.905823	24.263069
869.861511	60.647961
869.817078	56.595699
869.772766	64.670441
869.728394	56.577572
869.684021	48.487297
869.639648	32.319687
869.595276	48.471767
869.550903	60.580006
869.506531	32.304161
869.462158	56.523232
869.417786	64.587631
869.373413	68.613373
869.328979	48.425213
869.284607	44.382668
869.240234	40.341419
869.195862	52.435444
869.151428	40.328499
869.107056	68.547470
869.062622	60.473373
869.018250	52.401863
868.973877	40.302670
868.929443	88.651672
868.885010	56.405666
868.840637	64.453293
868.796143	88.609085
868.751770	60.405609
868.707336	44.290352
868.662903	28.180256
868.618469	48.301273
868.574036	36.220154
868.529663	80.476334
868.485229	92.532967
868.440735	88.495613
868.396301	72.393906
868.351868	56.297356
868.307434	52.267742
868.263000	48.239418
868.218506	28.135155
868.174072	44.205303
868.129578	68.306343
868.085144	56.243275
868.040710	60.250999
867.996277	56.225258
867.951721	36.139019
867.907288	60.222054
867.862793	48.169926
867.818359	24.081104
867.773865	16.051498
867.729370	56.171246
867.684937	24.069536
867.640442	28.076626
867.595947	64.164864
867.551514	68.164253
867.506958	72.162354
867.462463	32.067020
867.417969	32.061882
867.373535	52.092213
867.328979	52.083870
867.284485	36.052288
867.239929	60.077522
867.195435	52.058846
867.150940	64.062164
867.106445	56.045410
867.061890	52.033833
867.017395	4.001961
866.972839	76.025085
866.928345	36.006115
866.883789	52.000500
866.839294	67.989761
866.794739	47.985085
866.750183	51.975513
866.705688	43.972237
866.661133	47.962025
866.616638	59.942928
866.572021	51.942215
866.527527	71.908470
866.482910	47.931301
866.438416	67.891800
866.393860	59.894932
866.349304	43.915913
866.304749	39.917160
866.260193	35.919689
866.215637	51.875683
866.171021	51.867374
866.126465	31.913271
866.081909	59.827797
866.037292	51.842449
865.992676	39.872417
865.948181	59.799046
865.903564	31.887714
865.859009	55.794559
865.814392	11.954062
865.769836	51.792633
865.725159	67.717979
865.680603	55.758812
865.635986	63.714149
865.591431	43.796459
865.546753	31.846867
865.502197	71.643967
865.457581	43.775410
865.412964	47.747341
865.368347	67.631233
865.323792	55.687386
865.279114	43.747364
865.234497	51.693146
865.189880	47.709103
865.145264	59.626823
865.100647	35.770363
865.055969	35.764629
865.011353	51.651745
864.966675	83.424065
864.922058	39.719379
864.877441	39.713017
864.832825	39.706654
864.788147	31.760233
864.743469	43.663322
864.698853	55.562595
864.654175	31.744967
864.609497	55.544792
864.564880	67.436440
864.520203	31.729710
864.475586	23.793468
864.430908	7.929885
864.386169	23.785843
864.341492	51.527737
864.296875	39.630367
864.252136	51.511223
864.207520	79.235336
864.162781	47.533585
864.118103	67.328453
864.073425	27.719038
864.028687	75.225334
863.984009	31.668749
863.939331	71.243263
863.894653	35.615925
863.849976	43.523598
863.805237	43.516621
863.760559	39.554226
863.715820	31.638309
863.671143	23.724930
863.626404	83.023949
863.581665	35.575989
863.536987	43.474796
863.492249	55.322689
863.447571	71.117775
863.402832	35.553188
863.358093	47.396652
863.313354	39.490879
863.268616	51.329918
863.223877	23.686934
863.179138	51.313465
863.134338	47.358685
863.089600	59.188866
863.044861	15.781168
863.000183	67.059212
862.955444	19.720137
862.910645	82.811302
862.865906	70.969742
862.821106	27.594919
862.776367	31.531996
862.731628	59.113014
862.686890	70.924248
862.642090	51.214859
862.597290	59.084595
862.552490	39.383415
862.507751	19.688551
862.463013	31.496634
862.418213	51.173824
862.373352	51.165623
862.328613	66.898163
862.283813	74.756554
862.239014	66.876724
862.194275	58.999413
862.149475	51.124626
862.104675	47.184399
862.059814	62.902447
862.015076	74.684685
861.970215	27.510998
861.925415	43.224640
861.880615	47.146591
861.835754	47.139034
861.790955	35.348610
861.746155	86.393860
861.701294	62.821823
861.656494	43.183079
861.611694	7.850210
861.566833	70.640564
861.522034	47.086163
861.477173	51.001831
861.432373	50.993652
861.387512	11.765880
861.342651	50.977306
861.297852	62.731239
861.252991	47.040886
861.208130	35.275009
861.163269	70.538704
861.118408	7.836378
861.073608	50.928288
861.028687	39.169323
860.983826	46.995655
860.938965	39.156765
860.894165	11.745146
860.849243	46.973053
860.804382	43.051727
860.759460	46.957989
860.714600	46.950462
860.669739	46.942932
860.624817	74.314392
860.580017	54.749195
860.535095	50.830387
860.490173	19.547014
860.445251	19.543879
860.400391	46.897789
860.355469	42.982746
860.310608	62.510334
