#Wave		#Intensity
899.963257	144.549515
899.920715	140.032349
899.878235	144.526321
899.835815	158.050293
899.793274	148.994934
899.750793	157.999573
899.708252	144.433563
899.665771	189.538635
899.623230	166.947723
899.580688	162.409546
899.538208	184.936752
899.495667	166.867355
899.453186	189.386612
899.410645	180.339249
899.368103	166.787048
899.325623	144.225113
899.283020	153.214584
899.240540	171.212357
899.197998	148.660553
899.155396	216.198837
899.112854	166.626526
899.070312	139.583618
899.027771	153.067139
898.985229	166.546341
898.942688	171.020142
898.900085	188.991943
898.857544	152.968933
898.814941	143.947662
898.772400	179.905701
898.729797	179.876846
898.687256	125.893585
898.644714	161.837219
898.602112	166.306000
898.559570	170.773361
898.516907	166.252655
898.474304	166.225983
898.431763	166.199310
898.389221	161.681488
898.346558	148.184265
898.304016	166.119339
898.261353	130.180756
898.218750	130.159866
898.176147	201.939804
898.133606	201.907410
898.090942	148.041687
898.048340	197.357254
898.005676	188.356247
897.963074	188.326035
897.920471	170.362885
897.877808	179.300583
897.835205	170.308243
897.792542	192.686310
897.749939	147.851822
897.707275	170.226303
897.664673	170.198990
897.622009	152.258881
897.579346	165.666916
897.536743	174.593872
897.494080	138.757492
897.451477	174.537872
897.408752	152.136810
897.366089	165.534103
897.323425	134.195312
897.280823	143.118698
897.238098	187.813171
897.195435	120.717674
897.152710	160.931091
897.110046	174.314041
897.067383	192.161591
897.024719	223.407867
896.982056	218.904602
896.939331	156.335358
896.896667	169.708313
896.854004	187.542252
896.811279	174.118454
896.768555	200.873688
896.725830	160.673172
896.683167	174.034698
896.640442	209.700485
896.597778	196.283875
896.555054	205.172958
896.512268	205.140060
896.469604	205.107162
896.426880	213.990540
896.384094	218.413651
896.341431	182.724976
896.298706	200.519638
896.255920	231.674423
896.213257	200.455338
896.170532	173.700104
896.127747	182.578522
896.085022	178.096817
896.042236	178.068268
895.999512	195.843689
895.956787	191.362000
895.913940	200.230453
895.871216	217.993759
895.828430	200.166245
895.785767	191.239304
895.742981	182.315216
895.700195	208.961975
895.657410	208.928482
895.614624	231.117844
895.571838	199.973770
895.529114	257.702637
895.486267	253.218887
895.443481	235.411392
895.400757	239.814667
895.357910	204.253815
895.315125	230.858597
895.272339	213.066071
895.229553	204.155594
895.186768	221.872665
895.143921	204.090134
895.101135	208.493454
895.058350	297.166412
895.015442	221.730423
894.972656	234.996582
894.929871	283.723969
894.887024	199.461426
894.844238	203.861221
894.801392	248.139084
894.758545	181.644135
894.715698	221.481735
894.672913	261.306549
894.630066	243.551804
894.587219	234.657761
894.544373	212.486160
894.501526	252.286865
894.458679	199.141922
894.415894	207.959335
894.372986	234.469742
894.330078	203.469421
894.287292	243.239655
894.244446	229.935181
894.201538	247.582809
894.158691	234.281891
894.115845	229.824631
894.072876	265.139771
894.030029	243.005829
893.987183	269.472351
893.944275	242.927933
893.901428	242.888992
893.858521	256.096436
893.815552	264.884888
893.772766	269.256470
893.729858	313.346649
893.686951	269.170166
893.644043	282.362793
893.601135	269.083893
893.558167	260.219757
893.515320	220.489868
893.472412	251.318176
893.429504	304.178497
893.386536	321.760468
893.343689	273.232208
893.300720	286.407227
893.257812	268.739075
893.214844	259.886322
893.171936	246.632217
893.129028	237.785812
893.086060	290.580536
893.043091	334.554260
893.000183	303.691376
892.957275	281.639618
892.914307	281.594482
892.871338	294.746979
892.828430	299.098236
892.785461	281.459137
892.742493	299.002411
892.699524	285.765320
892.656555	298.906586
892.613525	272.488800
892.570618	294.416504
892.527649	338.305054
892.484619	307.500763
892.441711	333.804474
892.398682	324.968079
892.355652	386.386597
892.312744	338.034088
892.269775	294.086426
892.226746	333.537109
892.183777	302.768066
892.140686	333.430237
892.097717	320.217194
892.054749	342.095062
892.011719	306.959198
891.968750	337.601013
891.925720	306.860840
891.882751	289.279572
891.839722	302.380188
891.796692	354.911194
891.753662	267.235962
891.710632	328.516174
891.667603	275.909363
891.624573	310.895660
891.581482	359.005066
891.538513	437.740906
891.495422	310.746246
891.452454	297.568451
891.409363	345.649109
891.366272	336.844543
891.323242	406.773010
891.280273	358.602631
891.237122	415.387695
891.194092	375.974945
891.151062	380.285797
891.107971	354.002472
891.064880	384.533661
891.021851	327.675049
890.978760	410.620270
890.935730	358.143280
890.892639	427.956329
890.849548	375.493347
890.806458	371.067688
890.763367	362.278625
890.720276	375.312897
890.677185	309.801697
890.634155	375.192657
890.591003	362.046539
890.547913	396.878998
890.504761	340.127502
890.461731	309.553650
890.418579	361.814606
890.375488	335.605560
890.332336	357.340881
890.289246	392.140564
890.246155	326.731476
890.203003	344.102020
890.159912	365.822021
890.116760	357.054749
890.073669	370.058441
890.030457	378.705017
889.987366	409.110016
889.944214	369.880646
889.901062	391.575592
889.857910	365.412018
889.814758	395.799591
889.771606	369.643707
889.728516	360.888397
889.685364	408.651489
889.642212	378.159424
889.598999	334.639221
889.555908	391.074097
889.512695	351.910309
889.469543	430.043701
889.426392	364.827118
889.383240	386.481110
889.340027	395.102783
889.296875	364.651855
889.253723	421.018616
889.210449	351.515930
889.167297	373.154663
889.124146	360.079956
889.080933	347.009430
889.037781	338.279999
888.994507	364.243195
888.951294	329.500580
888.908081	381.465881
888.864868	377.070648
888.821716	359.676453
888.778503	350.953339
888.735291	415.878082
888.692078	342.178192
888.648804	415.744873
888.605652	376.708435
888.562378	389.635986
888.519226	411.216553
888.475952	346.232178
888.432739	445.702515
888.389465	359.100830
888.346252	380.672424
888.303040	341.685272
888.259766	445.417053
888.216492	350.223328
888.173279	393.397766
888.130066	393.334778
888.086731	406.236786
888.043457	384.566833
888.000244	414.747253
887.956970	397.402466
887.913696	388.701019
887.870483	371.365936
887.827209	341.083832
887.783936	375.563812
887.740601	401.400482
887.697327	379.758972
887.654053	401.271942
887.610779	375.323303
887.567505	392.516693
887.524231	362.265076
887.480957	340.647095
887.437622	357.837738
887.394348	439.682007
887.351074	430.991760
887.307739	405.067383
887.264404	374.842743
887.221130	361.859161
887.177734	422.101440
887.134460	378.969177
887.091125	378.908478
887.047852	447.729218
887.004517	413.222321
886.961182	413.156158
886.917908	408.786987
886.874573	408.721527
886.831238	473.180725
886.787842	417.192535
886.744568	408.525208
886.701172	464.354279
886.657837	395.497711
886.614502	416.925385
886.571167	412.561127
886.527832	455.463287
886.484436	421.021271
886.441101	446.726532
886.397766	416.591705
886.354370	407.936859
886.310974	433.631836
886.267639	420.684296
886.224304	433.492981
886.180908	442.006195
886.137451	416.191620
886.094177	433.284760
886.050781	441.793915
886.007385	467.454620
885.963989	450.228241
885.920593	484.453735
885.877197	432.937988
885.833862	484.298615
885.790405	561.353638
885.747009	432.730072
885.703613	531.187500
885.660217	513.970093
885.616821	501.040619
885.573364	483.833557
885.529968	539.409424
885.486511	500.799988
885.443115	573.473999
885.399719	504.918610
885.356323	492.002899
885.312805	564.643372
885.269409	483.291534
885.225952	517.424011
885.182556	525.892273
885.139099	470.234863
885.095642	512.901367
885.052185	504.272247
885.008728	482.827454
884.965332	482.750153
884.921875	495.487183
884.878418	448.429504
884.835022	520.948975
884.791504	478.171661
884.748108	516.513489
884.704590	495.090668
884.661072	477.942047
884.617615	520.532104
884.574219	627.098083
884.530762	490.508392
884.487244	533.075928
884.443726	541.518433
884.400269	567.011169
884.356812	532.819946
884.313232	583.877136
884.269836	583.783691
884.226257	570.908691
884.182739	553.777954
884.139343	532.393555
884.095825	604.702271
884.052307	562.027588
884.008789	608.765747
883.965332	578.873352
883.921753	646.872498
883.878235	506.351990
883.834717	536.051575
883.791199	535.965759
883.747681	527.373901
883.704163	518.784790
883.660645	582.476562
883.617126	544.124573
883.573547	569.539185
883.530029	616.193787
883.486511	577.854736
883.442932	560.769226
883.399414	556.431885
883.355896	552.095886
883.312317	590.223389
883.268738	505.218292
883.225220	517.871948
883.181641	598.428345
883.138062	555.897583
883.094482	564.294250
883.050964	559.961792
883.007385	619.252502
882.963745	648.838806
882.920227	661.455200
882.876648	601.997437
882.833069	652.765991
882.789429	635.709229
882.745911	529.672913
882.702332	635.505737
882.658691	677.764221
882.615112	656.479004
882.571533	669.077942
882.527954	732.480713
882.484314	596.897339
882.440735	630.662903
882.397156	630.561951
882.353516	630.460999
882.309875	600.745850
882.266296	571.040161
882.222656	579.407288
882.179016	579.314514
882.135437	621.500732
882.091797	625.628479
882.048218	528.317810
882.004517	532.459106
881.960876	583.076172
881.917236	599.880859
881.873657	565.994141
881.829956	612.358337
881.786316	557.367981
881.742737	578.387817
881.699036	671.160156
881.655396	548.659424
881.611694	649.846375
881.568054	582.236633
881.524414	569.488159
881.480774	632.663330
881.437073	683.166992
881.393372	615.595154
881.349731	611.280884
881.306091	632.258301
881.262390	602.656433
881.218689	539.354370
881.174988	492.924683
881.131348	530.757019
881.087646	551.730469
881.044006	530.587097
881.000244	505.240143
880.956604	509.368927
880.912903	538.750305
880.869141	496.580933
880.825500	568.031311
880.781799	483.801056
880.738098	538.405396
880.694397	521.496765
880.650574	513.003357
880.606934	458.265717
880.563232	512.839172
880.519470	529.568787
880.475769	584.113281
880.432007	542.003967
880.388306	525.113586
880.344604	516.629089
880.300842	491.348969
880.257080	512.264771
880.213379	499.588135
880.169617	541.483643
880.125854	495.231323
880.082092	528.721680
880.038391	528.637024
879.994629	545.331848
879.950867	549.438782
879.907104	507.415619
879.863342	498.948700
879.819580	549.174927
879.775818	536.512512
879.732056	469.373322
879.688293	511.199799
879.644531	460.844086
879.600708	485.903229
879.556946	431.379486
879.513123	431.310455
879.469299	456.362274
879.425598	464.661499
879.381775	410.175995
879.338013	397.555939
879.294189	397.492310
879.250427	405.795593
879.206604	439.192963
879.162781	506.036591
879.119019	459.959625
879.075134	426.439758
879.031372	455.632263
878.987549	397.047119
878.943726	451.307648
878.899963	447.057281
878.856140	421.921112
878.812317	417.676819
878.768433	459.370941
878.724609	455.121979
878.680786	363.204346
878.636963	400.713043
878.593079	450.730042
878.549255	433.966858
878.505432	408.864838
878.461609	362.913757
878.417725	417.075470
878.373840	379.477905
878.330017	441.958466
878.286194	350.175171
878.242310	379.295715
878.198425	341.728241
878.154602	337.506775
878.110718	445.770935
878.066895	370.722076
878.022949	378.992218
877.979065	374.767487
877.935181	358.053833
877.891296	378.810272
877.847473	366.263367
877.803589	324.590576
877.759705	349.503113
877.715759	349.447174
877.671936	341.072388
877.627991	324.382782
877.584106	378.386017
877.540222	315.964111
877.496277	340.854065
877.452393	332.487305
877.408447	373.988342
877.364563	290.833282
877.320679	369.714539
877.276672	311.507324
877.232788	336.374054
877.188904	307.255493
877.144958	348.720673
877.101013	344.514099
877.057068	286.357422
877.013184	273.863251
876.969238	302.860870
876.925354	273.775604
876.881348	311.058838
876.837402	311.009033
876.793457	257.059631
876.749512	281.891266
876.705566	294.280518
876.661560	261.080353
876.617676	236.177734
876.573730	231.997131
876.529724	289.949982
876.485779	227.781387
876.441833	248.449005
876.397888	244.269073
876.353821	310.461823
876.309875	231.774399
876.265869	260.704437
876.221924	273.075226
876.177917	289.578888
876.133972	194.400406
876.089966	293.621704
876.046021	322.518677
876.002014	268.722534
875.958008	281.080109
875.913940	276.902252
875.869995	264.461304
875.825989	293.339783
875.781982	243.722214
875.737976	297.376099
875.693970	272.551117
875.649902	222.960678
875.605896	268.335632
875.561890	247.654770
875.517883	264.122803
875.473877	264.080536
875.429810	264.038239
875.385864	268.120911
875.341736	276.326538
875.297791	247.416992
875.253723	325.713562
875.209656	251.460083
875.165588	272.028015
875.121521	247.258606
875.077454	329.625366
875.033447	350.170898
874.989380	300.686859
874.945374	300.638733
874.901306	304.708282
874.857239	321.127563
874.813110	358.123413
874.769104	279.867737
874.725037	366.238831
874.680969	353.837067
874.636841	312.643158
874.592773	304.366974
874.548706	341.329926
874.504639	259.040283
874.460571	312.442993
874.416443	295.951263
874.372437	304.123413
874.328308	304.074738
874.284180	279.375305
874.240051	332.731995
874.196045	320.357300
874.151917	295.667084
874.107788	332.572235
874.063660	291.467255
874.019531	332.465759
873.975464	291.373932
873.931335	287.224091
873.887207	303.588287
873.843079	307.641571
873.798950	323.997253
873.754822	315.744232
873.710754	307.493835
873.666565	307.444611
873.622437	331.987030
873.578308	270.464630
873.534180	348.269897
873.489990	372.793976
873.445862	356.350372
873.401672	372.674622
873.357605	397.182953
873.313416	319.333099
873.269287	323.375336
873.225098	351.972504
873.180969	335.547943
873.136780	364.133972
873.092590	306.805359
873.048462	290.395905
873.004272	339.422546
872.960083	339.368195
872.915894	347.490112
872.871765	314.734772
872.827576	318.771179
872.783386	347.323242
872.739197	330.925629
872.695007	355.381714
872.650818	392.082550
872.606567	343.017303
872.562439	383.791260
872.518188	367.400879
872.474060	342.852570
872.429810	355.040466
872.385559	342.742798
872.341370	359.006409
872.297241	354.869965
872.252930	362.969757
872.208740	379.222290
872.164551	379.161560
872.120361	423.940735
872.076050	387.191559
872.031860	366.754333
871.987610	399.290771
871.943359	415.521820
871.899109	362.505096
871.854919	358.374634
871.810608	358.317230
871.766418	337.904205
871.722168	358.202515
871.677917	333.726166
871.633667	362.156982
871.589417	333.619293
871.545166	341.701630
871.500916	361.983063
871.456665	313.126190
871.412354	349.669373
871.368103	296.764862
871.323853	329.234283
871.279602	341.373505
871.235229	316.938904
871.190979	280.324158
871.146790	324.961456
871.102417	341.154907
871.058105	337.039551
871.013916	304.505035
870.969604	336.931641
870.925293	373.406586
870.880981	316.533142
870.836731	373.287018
870.792419	336.715881
870.748047	255.538589
870.703796	312.274933
870.659485	316.279816
870.615173	340.554474
870.570862	287.803528
870.526550	312.074951
870.482178	287.711365
870.437866	287.665283
870.393555	259.262390
870.349243	311.875122
870.304932	242.980667
870.260559	263.186890
870.216248	271.241516
870.171875	206.434357
870.127563	242.825058
870.083252	222.553986
870.038879	246.793091
869.994507	242.708420
869.950195	242.669556
869.905823	214.323776
869.861511	246.635040
869.817078	202.127487
869.772766	202.095123
869.728394	202.062759
869.684021	254.558304
869.639648	201.998047
869.595276	153.493927
869.550903	205.972015
869.506531	205.939041
869.462158	213.980804
869.417786	181.652725
869.373413	185.659714
869.328979	137.204758
869.284607	165.426300
869.240234	229.946091
869.195862	116.971375
869.151428	153.248291
869.107056	181.449173
869.062622	157.230774
869.018250	185.421982
868.973877	120.908005
868.929443	120.888641
868.885010	165.188019
868.840637	124.878258
868.796143	104.719826
868.751770	157.054581
868.707336	120.791870
868.662903	140.901276
868.618469	140.878708
868.574036	116.709381
868.529663	124.738319
868.485229	80.463448
868.440735	156.878586
868.396301	92.503326
868.351868	124.658424
868.307434	140.720840
868.263000	116.578598
868.218506	112.540619
868.174072	120.559921
868.129578	96.432487
868.085144	136.590805
868.040710	116.485268
867.996277	136.547058
867.951721	136.525192
867.907288	108.399696
867.862793	92.325691
867.818359	92.310905
867.773865	156.502106
867.729370	92.281334
867.684937	144.417206
867.640442	124.339348
867.595947	68.175171
867.551514	80.193237
867.506958	104.234512
867.462463	96.201057
867.417969	112.216591
867.373535	72.127678
867.328979	88.141937
867.284485	116.168480
867.239929	80.103363
867.195435	92.104111
867.150940	104.101013
867.106445	100.081093
867.061890	108.070267
867.017395	112.054916
866.972839	100.033005
866.928345	96.016304
866.883789	64.000610
866.839294	95.985542
866.794739	91.971413
866.750183	131.937836
866.705688	103.934372
866.661133	95.924049
866.616638	87.916298
866.572021	95.893318
866.527527	75.903381
866.482910	87.874054
866.438416	79.872704
866.393860	63.887924
866.349304	123.763023
866.304749	95.801186
866.260193	91.794762
866.215637	111.732246
866.171021	95.755150
866.126465	63.826542
866.081909	79.770393
866.037292	103.684898
865.992676	75.757591
865.948181	71.758858
865.903564	79.719284
865.859009	111.589119
865.814392	79.693748
865.769836	99.601219
865.725159	87.635033
865.680603	95.586533
865.635986	103.535492
865.591431	107.500397
865.546753	91.559738
865.502197	95.525291
865.457581	75.612076
865.412964	79.578903
865.368347	91.501076
865.323792	87.508743
865.279114	131.242081
865.234497	83.504311
865.189880	91.442451
865.145264	103.353165
865.100647	123.209023
865.055969	83.450806
865.011353	79.464226
864.966675	75.478912
864.922058	111.214264
864.877441	99.282539
864.832825	127.061287
864.788147	99.250725
864.743469	87.326645
864.698853	115.093948
864.654175	123.011749
864.609497	103.154610
864.564880	95.204384
864.520203	126.918839
864.475586	91.208298
864.430908	79.298851
864.386169	107.036301
864.341492	114.946487
864.296875	114.928070
864.252136	79.248039
864.207520	110.929474
864.162781	99.028297
864.118103	122.775414
864.073425	114.836014
864.028687	118.776840
863.984009	118.757805
863.939331	154.360413
863.894653	114.762421
863.849976	106.830650
863.805237	146.374100
863.760559	130.528946
863.715820	110.734085
863.671143	138.395416
863.626404	130.466202
863.581665	98.822189
863.536987	102.758606
863.492249	110.645378
863.447571	94.823700
863.402832	98.758858
863.358093	102.692749
863.313354	106.625381
863.268616	126.350563
863.223877	138.173782
863.179138	122.362877
863.134338	122.343269
863.089600	157.836975
863.044861	102.577591
863.000183	110.450470
862.955444	110.432770
862.910645	94.641487
862.865906	98.569084
862.821106	118.263939
862.776367	82.771492
862.731628	90.639954
862.686890	94.565666
862.642090	94.550507
862.597290	102.413300
862.552490	106.335228
862.507751	55.127945
862.463013	102.364059
862.418213	70.856064
862.373352	82.652161
862.328613	66.898163
862.283813	70.821999
862.239014	78.678497
862.194275	106.198944
862.149475	58.989956
862.104675	70.776596
862.059814	78.628059
862.015076	74.684685
861.970215	70.742569
861.925415	66.801712
