#Wave		#Intensity
899.963257	72.274757
899.920715	58.723244
899.878235	31.615133
899.835815	63.220119
899.793274	54.179977
899.750793	63.199829
899.708252	63.189686
899.665771	76.718018
899.623230	81.217812
899.580688	58.647892
899.538208	72.170441
899.495667	63.139000
899.453186	63.128868
899.410645	72.135704
899.368103	27.046547
899.325623	58.591450
899.283020	58.582047
899.240540	90.111763
899.197998	76.582710
899.155396	49.545567
899.112854	76.558136
899.070312	72.043152
899.027771	76.533569
898.985229	40.511272
898.942688	67.507950
898.900085	49.497890
898.857544	76.484467
898.814941	62.977100
898.772400	53.971710
898.729797	40.472290
898.687256	67.442993
898.644714	76.423126
898.602112	71.916107
898.559570	44.940357
898.516907	49.426464
898.474304	49.418533
898.431763	62.886227
898.389221	62.876137
898.346558	44.904320
898.304016	53.876541
898.261353	49.378906
898.218750	49.370983
898.176147	98.726128
898.133606	71.789307
898.090942	62.805565
898.048340	62.795490
898.005676	89.693451
897.963074	58.291389
897.920471	58.282040
897.877808	35.860119
897.835205	58.263344
897.792542	94.102615
897.749939	53.764297
897.707275	76.153870
897.664673	76.141655
897.622009	89.564049
897.579346	53.729809
897.536743	67.151489
897.494080	44.760479
897.451477	49.228630
897.408752	53.695347
897.366089	71.582314
897.323425	107.356247
897.280823	76.031815
897.238098	62.604389
897.195435	62.594349
897.152710	62.584312
897.110046	80.452637
897.067383	62.564240
897.024719	80.426834
896.982056	80.413933
896.939331	62.534142
896.896667	53.592098
896.854004	71.444672
896.811279	62.504059
896.768555	66.957893
896.725830	44.631439
896.683167	71.398849
896.640442	53.540550
896.597778	53.531963
896.555054	53.523380
896.512268	102.570030
896.469604	93.635880
896.426880	93.620865
896.384094	53.489056
896.341431	93.590836
896.298706	62.383888
896.255920	44.552773
896.213257	40.091068
896.170532	44.538486
896.127747	57.890751
896.085022	62.333889
896.042236	40.065361
895.999512	31.156950
895.956787	57.853630
895.913940	88.991310
895.871216	35.590816
895.828430	71.170219
895.785767	48.921680
895.742981	62.253975
895.700195	48.905994
895.657410	71.124588
895.614624	66.668610
895.571838	57.770199
895.529114	84.419830
895.486267	88.848732
895.443481	48.858967
895.400757	57.733158
895.357910	84.365707
895.315125	62.154236
895.272339	93.216408
895.229553	79.886971
895.186768	53.249443
895.143921	57.677647
895.101135	70.976494
895.058350	84.271072
895.015442	106.430603
894.972656	35.471180
894.929871	39.898682
894.887024	66.487144
894.844238	75.340019
894.801392	75.327942
894.758545	79.746208
894.715698	57.585251
894.672913	17.715698
894.630066	61.995007
894.587219	79.695084
894.544373	61.975132
894.501526	57.539112
894.458679	44.253761
894.415894	70.794662
894.372986	66.359360
894.330078	57.502228
894.287292	97.295860
894.244446	48.640133
894.201538	75.159065
894.158691	53.044956
894.115845	57.456158
894.072876	75.122932
894.030029	88.365753
893.987183	44.175797
893.944275	83.920555
893.901428	75.074783
893.858521	52.985470
893.815552	70.635971
893.772766	110.351013
893.729858	35.306664
893.686951	57.364132
893.644043	66.178780
893.601135	52.934536
893.558167	110.262611
893.515320	70.556763
893.472412	74.954544
893.429504	70.534149
893.386536	57.299809
893.343689	57.290627
893.300720	48.468914
893.257812	88.111176
893.214844	57.263084
893.171936	83.678787
893.129028	57.244732
893.086060	88.054703
893.043091	96.844658
893.000183	74.822510
892.957275	101.214233
892.914307	70.398621
892.871338	61.588921
892.828430	101.165581
892.785461	92.353775
892.742493	79.147690
892.699524	92.324181
892.656555	61.539589
892.613525	65.924706
892.570618	96.674080
892.527649	61.510010
892.484619	87.857361
892.441711	87.843285
892.398682	122.960892
892.355652	92.205887
892.312744	65.850800
892.269775	87.786995
892.226746	92.161575
892.183777	74.595032
892.140686	78.970322
892.097717	100.890350
892.054749	83.330849
892.011719	65.776970
891.968750	56.997574
891.925720	92.058250
891.882751	74.511406
891.839722	74.499466
891.796692	52.579433
891.753662	61.332844
891.710632	78.843880
891.667603	91.969788
891.624573	96.333862
891.581482	87.562210
891.538513	96.303001
891.495422	74.404030
891.452454	74.392113
891.409363	105.007332
891.366272	104.990501
891.323242	104.973686
891.280273	69.971245
891.237122	65.587532
891.194092	87.436035
891.151062	118.019730
891.107971	78.667213
891.064880	100.503113
891.021851	61.166008
890.978760	91.734314
890.935730	91.719620
890.892639	78.604218
890.849548	109.155037
890.806458	87.310043
890.763367	113.484871
890.720276	78.553864
890.677185	61.087662
890.634155	78.528694
890.591003	74.154114
890.547913	74.142227
890.504761	91.572792
890.461731	78.478386
890.418579	65.388184
890.375488	65.377708
890.332336	74.082863
890.289246	78.428116
890.246155	95.841232
890.203003	82.758713
890.159912	104.520576
890.116760	78.377876
890.073669	78.365318
890.030457	56.588108
889.987366	108.805855
889.944214	78.327667
889.901062	52.210079
889.857910	91.353004
889.814758	104.386711
889.771606	73.928741
889.728516	121.745483
889.685364	82.599770
889.642212	104.319839
889.598999	86.919273
889.555908	99.941154
889.512695	69.513145
889.469543	86.877518
889.426392	65.147697
889.383240	86.849686
889.340027	91.177567
889.296875	99.845146
889.253723	91.148361
889.210449	99.813164
889.167297	86.780159
889.124146	65.074692
889.080933	69.401886
889.037781	99.749237
888.994507	121.414398
888.951294	104.052818
888.908081	73.692276
888.864868	86.682907
888.821716	91.002480
888.778503	51.993088
888.735291	95.305389
888.692078	121.278343
888.648804	90.944191
888.605652	99.589592
888.562378	90.915062
888.519226	90.900497
888.475952	90.885941
888.432739	73.562553
888.389465	77.877289
888.346252	103.819748
888.303040	69.202080
888.259766	95.137627
888.216492	112.417366
888.173279	95.107155
888.130066	103.736641
888.086731	99.398361
888.043457	77.777565
888.000244	90.725960
887.956970	95.031021
887.913696	82.059105
887.870483	107.955215
887.827209	73.397789
887.783936	56.118732
887.740601	82.006554
887.697327	107.886078
887.654053	86.295036
887.610779	69.024979
887.567505	94.894142
887.524231	103.504303
887.480957	81.927788
887.437622	51.735577
887.394348	99.143982
887.351074	99.128105
887.307739	137.895279
887.264404	116.330505
887.221130	77.541252
887.177734	94.757462
887.134460	94.742294
887.091125	86.115562
887.047852	116.237396
887.004517	86.087982
886.961182	86.074203
886.917908	86.060417
886.874573	73.139641
886.831238	86.032860
886.787842	103.222900
886.744568	77.404778
886.701172	120.388145
886.657837	77.379990
886.614502	73.069397
886.571167	94.545258
886.527832	98.826942
886.484436	98.811119
886.441101	90.204399
886.397766	111.663750
886.354370	103.057732
886.310974	55.813999
886.267639	68.683151
886.224304	120.176270
886.180908	111.574379
886.137451	102.975250
886.094177	85.798965
886.050781	124.388580
886.007385	94.348640
885.963989	81.469872
885.920593	107.180031
885.877197	120.022415
885.833862	85.716568
885.790405	85.702843
885.747009	98.542496
885.703613	111.378021
885.660217	81.378601
885.616821	115.624756
885.573364	77.070831
885.529968	107.025681
885.486511	128.410248
885.443115	106.991409
885.399719	141.206055
885.356323	102.678871
885.312805	98.384827
885.269409	128.307495
885.225952	153.944336
885.182556	106.888672
885.139099	111.146416
885.095642	98.306091
885.052185	111.110832
885.008728	85.456184
884.965332	98.258881
884.921875	115.328911
884.878418	123.851959
884.835022	136.642349
884.791504	111.004135
884.748108	123.792480
884.704590	110.968597
884.661072	85.346794
884.617615	85.333130
884.574219	115.181282
884.530762	119.428131
884.487244	93.821365
884.443726	89.542419
884.400269	81.001595
884.356812	132.139343
884.313232	102.285049
884.269836	106.529869
884.226257	102.252296
884.182739	115.015419
884.139343	89.442116
884.095825	93.686264
884.052307	85.155693
884.008789	144.741501
883.965332	93.641273
883.921753	102.137764
883.878235	106.376472
883.834717	106.359436
883.791199	123.357201
883.747681	114.831421
883.704163	89.299026
883.660645	123.297958
883.617126	114.776276
883.573547	59.504097
883.530029	89.241852
883.486511	89.227570
883.442932	135.944046
883.399414	97.694145
883.355896	101.925392
883.312317	84.924232
883.268738	93.401703
883.225220	93.386749
883.181641	101.860146
883.138062	131.548294
883.094482	114.555969
883.050964	106.053368
883.007385	114.519295
882.963745	89.056305
882.920227	89.042046
882.876648	114.464310
882.833069	114.445984
882.789429	88.999290
882.745911	93.222427
882.702332	131.337845
882.658691	93.192581
882.615112	122.825104
882.571533	105.866760
882.527954	131.253769
882.484314	143.932693
882.440735	110.048561
882.397156	143.886612
882.353516	131.169739
882.309875	139.609955
882.266296	101.518257
882.222656	84.585007
882.179016	97.257179
882.135437	88.785820
882.091797	88.771606
882.048218	131.022827
882.004517	118.324249
881.960876	84.503792
881.917236	101.388321
881.873657	135.162781
881.829956	97.132698
881.786316	135.119507
881.742737	105.545219
881.699036	122.412857
881.655396	84.409149
881.611694	143.472580
881.568054	118.134972
881.524414	122.334496
881.480774	126.532661
881.437073	134.946564
881.393372	122.275749
881.349731	139.119095
881.306091	143.311890
881.262390	88.501991
881.218689	80.060417
881.174988	117.964882
881.131348	109.521286
881.087646	101.080391
881.044006	130.541275
881.000244	84.206688
880.956604	79.983551
880.912903	84.179733
880.869141	117.832764
880.825500	88.360428
880.781799	92.553246
880.738098	113.569893
880.694397	147.196671
880.650574	88.303864
880.606934	105.106819
880.563232	121.904388
880.519470	117.681946
880.475769	96.651840
880.432007	113.442696
880.388306	121.826355
880.344604	113.406380
880.300842	92.390404
880.257080	83.977837
880.213379	121.748367
880.169617	104.938690
880.125854	134.300018
880.082092	146.867126
880.038391	109.083832
879.994629	113.261230
879.950867	71.301216
879.907104	109.031456
879.863342	104.821159
879.819580	100.612206
879.775818	125.745125
879.732056	71.244164
879.688293	92.183571
879.644531	96.358307
879.600708	92.154060
879.556946	96.327461
879.513123	100.499519
879.469299	87.923004
879.425598	75.350510
879.381775	79.523918
879.338013	112.989586
879.294189	108.787369
879.250427	121.320335
879.206604	75.290222
879.162781	117.099380
879.119019	91.991928
879.075134	87.796417
879.031372	125.403381
878.987549	91.947754
878.943726	121.184456
878.899963	83.562111
878.856140	91.903610
878.812317	116.949509
878.768433	108.578583
878.724609	87.684052
878.680786	121.068115
878.636963	70.959602
878.593079	70.948242
878.549255	83.455162
878.505432	66.753441
878.461609	87.599869
878.417725	83.415092
878.373840	112.592346
878.330017	75.049553
878.286194	83.375038
878.242310	75.025528
878.198425	83.348351
878.154602	91.668510
878.110718	87.487755
878.066895	87.473747
878.022949	70.800743
877.979065	79.117577
877.935181	83.268333
877.891296	116.557007
877.847473	41.620838
877.803589	91.551186
877.759705	83.215027
877.715759	87.361794
877.671936	87.347809
877.627991	54.063797
877.584106	74.845581
877.540222	91.463295
877.496277	112.232437
877.452393	66.497459
877.408447	70.642242
877.364563	58.166653
877.320679	103.852394
877.276672	95.528915
877.232788	78.902557
877.188904	74.737823
877.144958	78.877296
877.101013	116.221619
877.057068	62.251614
877.013184	82.988869
876.969238	82.975586
876.925354	66.369843
876.881348	78.801567
876.837402	116.110039
876.793457	87.068588
876.749512	74.618271
876.705566	103.619904
876.661560	87.026779
876.617676	45.578159
876.573730	66.284897
876.529724	103.553566
876.485779	91.112549
876.441833	74.534698
876.397888	82.803078
876.353821	95.208298
876.309875	70.360085
876.265869	66.210655
876.221924	86.887573
876.177917	103.421028
876.133972	78.587402
876.089966	62.032753
876.046021	99.236511
876.002014	86.818054
875.958008	95.071213
875.913940	70.258781
875.869995	74.379738
875.825989	74.367836
875.781982	57.832390
875.737976	70.213799
875.693970	49.554749
875.649902	103.222534
875.605896	86.693047
875.561890	86.679169
875.517883	78.411461
875.473877	78.398903
875.429810	94.888748
875.385864	94.873558
875.341736	53.615601
875.297791	49.483398
875.253723	70.090263
875.209656	94.812820
875.165588	78.311096
875.121521	61.814651
875.077454	94.767296
875.033447	37.076916
874.989380	86.498955
874.945374	102.958466
874.901306	70.000549
874.857239	69.989342
874.813110	74.094498
874.769104	61.735531
874.725037	86.415909
874.680969	65.830154
874.636841	57.592159
874.592773	69.922142
874.548706	78.135765
874.504639	86.346756
874.460571	61.666382
874.416443	78.098244
874.372437	82.195518
874.328308	106.837067
874.284180	90.386124
874.240051	69.832642
874.196045	65.714317
874.151917	86.236237
874.107788	69.799110
874.063660	45.156898
874.019531	77.985794
873.975464	98.492599
873.931335	94.373634
873.887207	77.948341
873.843079	86.139641
873.798950	82.024620
873.754822	90.212639
873.710754	102.497948
873.666565	86.084496
873.622437	61.479080
873.578308	81.958984
873.534180	81.945862
873.489990	73.739464
873.445862	86.015602
873.401672	98.287811
873.357605	73.704056
873.313416	81.880287
873.269287	85.960533
873.225098	94.132179
873.180969	106.393250
873.136780	81.827858
873.092590	89.996239
873.048462	89.981827
873.004272	77.699135
872.960083	65.420380
872.915894	81.762375
872.871765	98.099144
872.827576	77.649391
872.783386	102.153893
872.739197	69.453522
872.695007	57.187862
872.650818	81.683868
872.606567	81.670792
872.562439	102.072144
872.518188	85.726868
872.474060	89.794724
872.429810	89.780350
872.385559	69.364616
872.341370	97.910835
872.297241	53.026546
872.252930	65.252991
872.208740	81.553177
872.164551	77.463120
872.120361	85.603416
872.076050	93.741112
872.031860	81.500961
871.987610	105.934288
871.943359	101.843582
871.899109	93.681091
871.854919	73.303902
871.810608	118.081818
871.766418	52.924751
871.722168	77.339180
871.677917	81.396622
871.633667	85.452774
871.589417	73.233505
871.545166	69.153900
871.500916	89.478958
871.456665	56.932037
871.412354	77.252533
871.368103	60.979080
871.323853	130.067871
871.279602	65.023521
871.235229	81.266388
871.190979	85.316048
871.146790	52.806236
871.102417	97.472832
871.058105	85.275070
871.013916	64.961075
870.969604	85.247765
870.925293	93.351646
870.880981	64.929878
870.836731	81.149345
870.792419	77.079536
870.748047	101.404205
870.703796	109.499001
870.659485	105.426598
870.615173	105.409721
870.570862	52.696419
870.526550	60.793823
870.482178	93.202271
870.437866	93.187347
870.393555	97.223396
870.349243	60.754894
870.304932	89.092911
870.260559	72.882523
870.216248	76.919235
870.171875	93.097847
870.127563	84.988770
870.083252	76.882286
870.038879	40.457882
869.994507	80.902809
869.950195	84.934341
869.905823	117.271500
869.861511	52.561565
869.817078	76.808449
869.772766	84.879951
869.728394	64.660080
869.684021	72.730942
869.639648	80.799217
869.595276	76.746964
869.550903	72.696007
869.506531	80.760406
869.462158	40.373737
869.417786	68.624359
869.373413	68.613373
869.328979	56.496078
869.284607	68.591393
869.240234	68.580414
869.195862	40.334957
869.151428	68.558449
869.107056	56.450855
869.062622	56.441814
869.018250	72.556427
868.973877	72.544807
868.929443	56.414700
868.885010	60.434643
868.840637	64.453293
868.796143	44.304543
868.751770	72.486732
868.707336	44.290352
868.662903	76.489265
868.618469	44.276165
868.574036	72.440308
868.529663	40.238167
868.485229	100.579308
868.440735	76.428032
868.396301	64.350143
868.351868	68.361076
868.307434	48.247147
868.263000	52.259369
868.218506	88.424767
868.174072	60.279961
868.129578	44.198223
868.085144	48.208523
868.040710	72.301201
867.996277	44.176991
867.951721	100.386169
867.907288	76.281265
867.862793	92.325691
867.818359	48.162209
867.773865	48.154495
867.729370	92.281334
867.684937	56.162251
867.640442	40.109467
867.595947	24.061825
867.551514	60.144928
867.506958	64.144310
867.462463	56.117283
867.417969	48.092823
867.373535	44.078026
867.328979	76.122581
867.284485	72.104576
867.239929	56.072353
867.195435	52.058846
867.150940	68.066048
867.106445	88.071365
867.061890	76.049446
867.017395	68.033340
866.972839	48.015842
866.928345	68.011551
866.883789	52.000500
866.839294	47.992771
866.794739	63.980110
866.750183	43.979279
866.705688	63.959614
866.661133	47.962025
866.616638	71.931511
866.572021	59.933327
866.527527	75.903381
866.482910	71.896950
866.438416	63.898163
866.393860	47.915943
866.349304	51.900623
866.304749	51.892311
866.260193	39.910767
866.215637	63.846996
866.171021	47.877575
866.126465	39.891586
866.081909	63.816315
866.037292	87.733376
865.992676	67.783112
865.948181	59.799046
865.903564	79.719284
865.859009	79.706512
865.814392	39.846874
865.769836	55.776684
865.725159	59.751160
865.680603	71.689903
865.635986	63.714149
865.591431	79.629929
865.546753	67.674591
865.502197	83.584633
865.457581	55.714161
865.412964	75.599960
865.368347	67.631233
865.323792	63.642723
865.279114	75.563629
865.234497	55.669540
865.189880	59.636379
865.145264	47.701458
865.100647	79.489693
865.055969	51.660023
865.011353	71.517799
864.966675	51.643471
864.922058	67.522949
864.877441	47.655621
864.832825	63.530643
864.788147	79.400581
864.743469	55.571499
864.698853	47.625080
864.654175	67.458054
864.609497	51.577305
864.564880	55.535889
864.520203	55.526993
864.475586	31.724625
864.430908	55.509197
864.386169	31.714458
864.341492	59.455082
864.296875	51.519478
864.252136	43.586422
864.207520	67.350037
864.162781	63.378113
864.118103	55.446960
864.073425	79.197250
864.028687	67.306877
863.984009	75.213280
863.939331	63.327347
863.894653	47.487900
863.849976	71.220428
863.805237	67.252960
863.760559	39.554226
863.715820	47.457466
863.671143	59.312325
863.626404	67.209862
863.581665	63.246201
863.536987	47.427048
863.492249	67.177551
863.447571	71.117775
863.402832	59.255314
863.358093	63.195538
863.313354	78.981758
863.268616	35.536095
863.223877	43.426044
863.179138	71.049416
863.134338	63.144913
863.089600	47.351093
863.044861	51.288795
863.000183	35.501938
862.955444	78.880547
862.910645	39.433952
862.865906	27.599342
862.821106	63.074100
862.776367	67.005493
862.731628	63.053883
862.686890	74.864487
862.642090	66.973274
862.597290	66.962540
862.552490	74.828491
862.507751	47.252525
862.463013	43.307873
862.418213	62.983170
862.373352	47.229805
862.328613	59.027794
862.283813	47.214664
862.239014	55.074947
862.194275	70.799294
862.149475	78.653275
862.104675	70.776596
862.059814	51.108238
862.015076	51.100044
861.970215	66.812424
861.925415	39.295128
861.880615	62.862122
861.835754	74.636803
861.790955	54.986725
861.746155	94.247841
861.701294	62.821823
861.656494	47.108814
861.611694	35.325947
861.566833	47.093712
861.522034	74.553085
861.477173	78.464355
861.432373	70.606598
861.387512	66.673317
861.342651	54.898636
861.297852	58.810535
861.252991	62.721184
861.208130	97.986137
861.163269	50.944622
861.118408	50.936455
861.073608	39.175606
861.028687	43.086258
860.983826	66.577179
860.938965	46.988117
860.894165	62.640781
860.849243	70.459579
860.804382	43.051727
860.759460	54.784321
860.714600	66.513153
860.669739	62.590576
