#Wave		#Intensity
899.963257	112.929314
899.920715	117.446487
899.878235	149.042770
899.835815	112.893066
899.793274	108.359955
899.750793	144.456757
899.708252	117.352272
899.665771	126.359093
899.623230	108.290413
899.580688	126.318542
899.538208	121.787621
899.495667	130.787933
899.453186	162.331375
899.410645	139.762924
899.368103	130.724976
899.325623	135.211044
899.283020	148.708282
899.240540	117.145294
899.197998	108.116768
899.155396	135.124283
899.112854	130.599182
899.070312	108.064735
899.027771	117.051346
898.985229	126.035065
898.942688	67.507950
898.900085	107.995392
898.857544	139.471664
898.814941	116.957474
898.772400	148.422211
898.729797	94.435341
898.687256	98.916389
898.644714	130.368866
898.602112	98.884651
898.559570	143.809143
898.516907	157.266022
898.474304	148.255600
898.431763	116.788704
898.389221	170.663803
898.346558	152.674698
898.304016	166.119339
898.261353	170.581680
898.218750	170.554306
898.176147	107.701233
898.133606	157.039108
898.090942	130.097244
898.048340	130.076370
898.005676	152.478867
897.963074	130.034637
897.920471	165.879654
897.877808	156.888016
897.835205	138.935669
897.792542	174.761993
897.749939	156.812531
897.707275	161.267014
897.664673	129.888702
897.622009	165.693497
897.579346	94.027168
897.536743	134.302979
897.494080	156.661682
897.451477	138.735229
897.408752	143.187592
897.366089	161.060196
897.323425	134.195312
897.280823	152.063629
897.238098	147.567490
897.195435	160.956894
897.152710	125.168625
897.110046	160.905273
897.067383	129.597351
897.024719	138.512878
896.982056	151.892990
896.939331	134.001724
896.896667	192.038345
896.854004	174.146378
896.811279	151.795578
896.768555	174.090530
896.725830	209.767761
896.683167	174.034698
896.640442	138.313095
896.597778	165.056885
896.555054	165.030426
896.512268	147.165695
896.469604	169.436356
896.426880	169.409180
896.384094	169.382019
896.341431	151.528030
896.298706	173.783691
896.255920	169.300537
896.213257	169.273392
896.170532	227.146286
896.127747	133.594040
896.085022	124.667778
896.042236	182.519974
895.999512	164.686737
895.956787	151.309494
895.913940	186.881760
895.871216	169.056381
895.828430	182.373688
895.785767	128.975342
895.742981	168.975082
895.700195	177.839981
895.657410	160.030319
895.614624	164.449234
895.571838	195.529907
895.529114	182.169113
895.486267	177.697464
895.443481	155.460358
895.400757	217.609604
895.357910	182.052307
895.315125	150.945999
895.272339	177.555069
895.229553	164.212097
895.186768	212.997772
895.143921	195.216644
895.101135	230.673599
895.058350	190.718750
895.015442	226.165039
894.972656	155.186417
894.929871	141.861984
894.887024	186.164001
894.844238	181.702393
894.801392	203.828537
894.758545	194.935181
894.715698	181.615021
894.672913	234.733002
894.630066	203.697876
894.587219	194.810211
894.544373	163.791412
894.501526	203.599930
894.458679	212.418045
894.415894	172.561996
894.372986	154.838501
894.330078	207.892670
894.287292	229.972046
894.244446	168.029556
894.201538	181.265991
894.158691	229.861465
894.115845	190.047287
894.072876	220.949799
894.030029	229.750961
893.987183	220.878983
893.944275	238.511063
893.901428	189.895035
893.858521	229.603699
893.815552	216.322647
893.772766	273.670502
893.729858	220.666656
893.686951	220.631287
893.644043	202.948242
893.601135	238.205414
893.558167	242.577744
893.515320	260.178040
893.472412	154.318176
893.429504	224.827591
893.386536	202.753174
893.343689	145.430054
893.300720	246.750839
893.257812	233.494614
893.214844	215.837784
893.171936	206.994904
893.129028	206.961731
893.086060	259.761383
893.043091	237.709610
893.000183	228.868866
892.957275	277.238983
892.914307	215.595779
892.871338	268.351715
892.828430	237.519196
892.785461	215.492142
892.742493	268.222748
892.699524	241.801422
892.656555	312.093628
892.613525	215.354050
892.570618	290.022247
892.527649	320.730774
892.484619	263.572083
892.441711	245.961197
892.398682	298.619293
892.355652	316.134491
892.312744	276.573334
892.269775	272.139679
892.226746	258.930145
892.183777	267.664520
892.140686	245.685440
892.097717	276.351837
892.054749	289.465057
892.011719	254.337631
891.968750	284.987885
891.925720	241.104950
891.882751	271.747498
891.839722	319.909485
891.796692	293.568512
891.753662	275.997803
891.710632	258.432709
891.667603	258.391296
891.624573	275.865173
891.581482	337.114502
891.538513	275.776764
891.495422	266.979156
891.452454	319.448486
891.409363	284.394836
891.366272	297.473083
891.323242	323.668854
891.280273	293.004578
891.237122	262.350128
891.194092	332.256927
891.151062	314.719269
891.107971	336.520874
891.064880	262.182037
891.021851	297.092041
890.978760	283.939545
890.935730	353.775665
890.892639	318.783783
890.849548	305.634125
890.806458	349.240173
890.763367	314.265808
890.720276	270.574432
890.677185	318.528534
890.634155	287.938568
890.591003	340.236511
890.547913	305.291534
890.504761	279.078979
890.461731	274.674347
890.418579	239.756668
890.375488	274.586365
890.332336	326.836151
890.289246	331.140930
890.246155	296.236511
890.203003	256.987579
890.159912	283.076538
890.116760	291.739868
890.073669	330.875793
890.030457	322.116913
889.987366	374.292145
889.944214	343.771423
889.901062	365.470551
889.857910	287.109436
889.814758	282.713989
889.771606	330.504974
889.728516	321.755920
889.685364	365.177948
889.642212	334.692841
889.598999	286.833618
889.555908	365.002502
889.512695	334.532013
889.469543	334.478424
889.426392	312.708954
889.383240	330.028809
889.340027	316.950592
889.296875	286.512177
889.253723	351.572235
889.210449	295.099792
889.167297	269.018494
889.124146	329.711761
889.080933	299.295654
889.037781	307.921539
888.994507	260.173706
888.951294	290.480774
888.908081	346.787170
888.864868	273.051147
888.821716	264.340515
888.778503	342.287811
888.735291	359.561249
888.692078	324.852722
888.648804	337.792694
888.605652	329.078644
888.562378	337.684509
888.519226	285.687286
888.475952	289.969452
888.432739	289.923004
888.389465	328.815216
888.346252	324.436737
888.303040	307.084229
888.259766	276.764008
888.216492	311.309631
888.173279	302.613678
888.130066	354.433533
888.086731	293.873413
888.043457	349.999054
888.000244	345.622711
887.956970	272.134277
887.913696	332.555298
887.870483	332.502045
887.827209	284.956116
887.783936	323.761902
887.740601	293.497131
887.697327	293.450134
887.654053	349.494904
887.610779	276.099915
887.567505	284.682434
887.524231	301.887543
887.480957	392.390961
887.437622	306.102173
887.394348	314.674377
887.351074	314.623993
887.307739	314.573608
887.264404	280.054932
887.221130	357.551331
887.177734	279.965240
887.134460	310.065674
887.091125	297.098694
887.047852	314.271484
887.004517	344.351929
886.961182	370.119049
886.917908	301.211456
886.874573	361.395874
886.831238	326.924866
886.787842	361.280151
886.744568	326.820160
886.701172	335.366974
886.657837	369.704376
886.614502	339.557800
886.571167	343.800934
886.527832	330.855408
886.484436	305.025604
886.441101	339.340363
886.397766	309.222687
886.354370	330.643555
886.310974	313.417053
886.267639	352.001160
886.224304	326.192719
886.180908	364.762390
886.137451	338.960175
886.094177	326.036072
886.050781	295.959045
886.007385	330.220245
885.963989	343.031036
885.920593	330.114502
885.877197	360.067261
885.833862	458.583649
885.790405	419.943939
885.747009	321.334198
885.703613	424.093262
885.660217	359.779083
885.616821	372.568665
885.573364	419.607849
885.529968	402.416565
885.486511	406.632477
885.443115	393.728394
885.399719	372.270508
885.356323	372.210907
885.312805	376.428894
885.269409	359.260956
885.225952	359.203461
885.182556	401.901398
885.139099	436.035950
885.095642	367.579285
885.052185	405.981873
885.008728	393.098450
884.965332	350.314270
884.921875	401.515472
884.878418	367.285126
884.835022	418.467194
884.791504	392.783875
884.748108	392.720978
884.704590	371.317993
884.661072	366.991211
884.617615	405.332367
884.574219	371.139679
884.530762	392.406708
884.487244	396.608490
884.443726	400.808929
884.400269	439.113922
884.356812	400.680573
884.313232	413.402069
884.269836	417.597076
884.226257	426.051239
884.182739	485.620667
884.139343	404.619110
884.095825	455.655914
884.052307	417.262909
884.008789	417.196106
883.965332	451.180695
883.921753	429.829742
883.878235	429.760925
883.834717	421.183380
883.791199	382.832672
883.747681	425.301544
883.704163	442.242798
883.660645	463.430267
883.617126	374.085632
883.573547	403.777802
883.530029	441.959656
883.486511	395.150665
883.442932	407.832153
883.399414	445.994995
883.355896	373.726440
883.312317	462.837067
883.268738	428.798706
883.225220	403.260956
883.181641	437.149780
883.138062	458.297272
883.094482	466.709534
883.050964	403.002777
883.007385	428.386993
882.963745	453.763092
882.920227	483.371124
882.876648	432.420715
882.833069	440.828979
882.789429	453.472595
882.745911	419.500916
882.702332	444.854004
882.658691	465.962921
882.615112	419.299500
882.571533	465.813751
882.527954	457.271179
882.484314	444.498047
882.440735	448.659515
882.397156	465.515533
882.353516	401.971771
882.309875	461.135895
882.266296	452.602234
882.222656	431.383514
882.179016	427.085876
882.135437	431.245422
882.091797	426.949158
882.048218	401.521545
882.004517	426.812469
881.960876	422.518951
881.917236	426.675842
881.873657	447.726715
881.829956	409.646606
881.786316	422.248474
881.742737	413.737274
881.699036	396.786499
881.655396	413.604828
881.611694	405.099030
881.568054	451.444366
881.524414	565.269714
881.480774	485.041870
881.437073	396.405548
881.393372	413.207703
881.349731	392.062927
881.306091	413.075439
881.262390	396.151794
881.218689	421.370605
881.174988	425.516174
881.131348	425.448059
881.087646	374.839783
881.044006	353.724731
881.000244	374.719788
880.956604	349.401825
880.912903	433.525635
880.869141	370.331543
880.825500	323.988220
880.781799	336.557251
880.738098	340.709686
880.694397	407.945038
880.650574	386.855011
880.606934	403.610168
880.563232	382.527557
880.519470	340.437073
880.475769	407.618622
880.432007	348.731262
880.388306	331.871796
880.344604	378.021271
880.300842	440.954224
880.257080	390.496918
880.213379	327.461121
880.169617	440.742493
880.125854	377.718811
880.082092	394.443146
880.038391	352.424683
879.994629	432.070618
879.950867	440.389832
879.907104	364.836029
879.863342	368.970490
879.819580	347.950531
879.775818	389.809875
879.732056	352.029999
879.688293	297.501526
879.644531	314.211884
879.600708	381.182709
879.556946	355.992798
879.513123	305.686035
879.469299	343.318390
879.425598	343.263428
879.381775	292.982849
879.338013	359.892761
879.294189	338.914490
879.250427	313.759491
879.206604	305.343689
879.162781	301.112671
879.119019	351.241913
879.075134	301.016296
879.031372	334.408997
878.987549	321.817139
878.943726	321.765625
878.899963	371.851379
878.856140	417.743683
878.812317	355.025299
878.768433	329.911865
878.724609	354.911621
878.680786	317.281952
878.636963	384.016693
878.593079	346.394379
878.549255	317.129608
878.505432	325.423035
878.461609	371.256592
878.417725	304.465088
878.373840	262.715485
878.330017	304.367615
878.286194	320.993896
878.242310	312.606354
878.198425	258.379883
878.154602	287.505768
878.110718	241.632843
878.066895	266.586670
878.022949	295.697235
877.979065	258.173157
877.935181	299.765991
877.891296	270.578766
877.847473	241.400864
877.803589	307.944885
877.759705	249.645081
877.715759	303.686218
877.671936	307.797028
877.627991	291.112762
877.584106	249.485275
877.540222	261.917603
877.496277	241.091904
877.452393	311.706848
877.408447	270.102692
877.364563	216.047577
877.320679	203.550705
877.276672	261.666138
877.232788	269.929810
877.188904	244.973984
877.144958	278.146271
877.101013	224.141693
877.057068	240.706253
877.013184	269.713806
876.969238	232.331635
876.925354	232.294449
876.881348	194.930191
876.837402	211.486145
876.793457	194.867798
876.749512	211.418442
876.705566	182.371017
876.661560	240.359680
876.617676	232.034271
876.573730	277.567993
876.529724	219.533569
876.485779	211.215454
876.441833	281.575531
876.397888	244.269073
876.353821	244.229980
876.309875	231.774399
876.265869	240.013626
876.221924	252.387711
876.177917	227.526260
876.133972	190.264236
876.089966	256.402039
876.046021	227.417007
876.002014	231.514801
875.958008	227.344208
875.913940	214.909210
875.869995	252.064682
875.825989	247.892776
875.781982	218.936905
875.737976	239.552979
875.693970	222.996368
875.649902	202.316162
875.605896	185.770813
875.561890	218.761719
875.517883	193.965179
875.473877	259.954254
875.429810	198.028687
875.385864	210.371796
875.341736	239.208054
875.297791	247.416992
875.253723	247.377396
875.209656	288.560760
875.165588	239.054916
875.121521	259.621552
875.077454	271.940918
875.033447	255.418762
874.989380	251.258881
874.945374	288.283691
874.901306	292.355225
874.857239	222.319092
874.813110	209.934418
874.769104	271.636322
874.725037	267.477814
874.680969	320.921997
874.636841	242.709824
874.592773	292.027771
874.548706	222.070068
874.504639	250.816772
874.460571	250.776627
874.416443	275.399078
874.372437	254.806107
874.328308	316.402100
874.284180	242.399155
874.240051	308.085175
874.196045	242.321548
874.151917	258.708710
874.107788	291.513916
874.063660	254.520706
874.019531	233.957382
873.975464	258.543060
873.931335	225.676071
873.887207	221.537399
873.843079	209.196274
873.798950	295.288635
873.754822	241.933884
873.710754	225.495483
873.666565	270.551270
873.622437	307.395386
873.578308	245.876938
873.534180	262.226746
873.489990	278.571320
873.445862	258.046814
873.401672	262.100830
873.357605	294.816223
873.313416	253.828888
873.269287	286.535126
873.225098	290.581940
873.180969	274.167236
873.136780	274.123322
873.092590	278.170197
873.048462	282.215729
873.004272	253.544556
872.960083	257.592743
872.915894	233.022781
872.871765	249.335327
872.827576	245.208603
872.783386	286.030884
872.739197	269.643097
872.695007	212.412064
872.650818	302.230316
872.606567	289.931305
872.562439	244.973145
872.518188	277.591766
872.474060	297.955231
872.429810	326.473999
872.385559	289.699280
872.341370	297.812134
872.297241	293.685486
872.252930	269.168579
872.208740	277.280823
872.164551	281.313416
872.120361	313.879211
872.076050	256.769135
872.031860	293.403473
871.987610	277.058899
871.943359	309.604492
871.899109	281.043274
871.854919	248.418777
871.810608	236.163635
871.766418	227.983551
871.722168	236.088013
871.677917	215.701050
871.633667	268.565857
871.589417	268.522858
871.545166	240.004715
871.500916	219.630173
871.456665	227.728149
871.412354	219.559845
871.368103	219.524689
871.323853	268.264984
871.279602	247.902176
871.235229	235.672531
871.190979	280.324158
871.146790	264.031189
871.102417	235.559341
871.058105	223.339462
871.013916	219.243637
870.969604	267.921539
870.925293	239.467270
870.880981	198.847748
870.836731	206.930847
870.792419	198.784073
870.748047	235.257751
870.703796	239.275604
870.659485	206.798325
870.615173	206.765213
870.570862	186.464249
870.526550	263.439911
870.482178	206.665909
870.437866	194.477936
870.393555	182.293869
870.349243	194.415665
870.304932	206.533554
870.260559	190.304367
870.216248	194.322281
870.171875	137.622910
870.127563	198.307129
870.083252	186.136063
870.038879	173.968887
869.994507	153.715332
869.950195	153.690720
869.905823	105.139969
869.861511	169.814285
869.817078	173.829651
869.772766	181.885605
869.728394	161.650208
869.684021	169.705536
869.639648	141.398636
869.595276	141.375992
869.550903	157.508011
869.506531	153.444778
869.462158	137.270706
869.417786	129.175262
869.373413	157.407150
869.328979	108.956726
869.284607	104.904488
869.240234	149.263245
869.195862	121.004875
869.151428	129.051193
869.107056	112.901711
869.062622	116.915184
869.018250	76.587334
868.973877	116.877739
868.929443	132.977509
868.885010	80.579521
868.840637	104.736603
868.796143	92.636772
868.751770	124.838257
868.707336	84.554306
868.662903	88.566521
868.618469	116.728073
868.574036	100.611534
868.529663	112.666870
868.485229	116.671997
868.440735	120.675842
868.396301	100.547096
868.351868	116.615952
868.307434	120.617867
868.263000	64.319221
868.218506	64.308922
868.174072	96.447937
868.129578	84.378426
868.085144	56.243275
868.040710	100.418335
867.996277	84.337891
867.951721	104.401611
867.907288	44.162838
867.862793	76.269051
867.818359	92.310905
867.773865	100.321869
867.729370	88.269104
867.684937	88.254959
867.640442	44.120415
867.595947	64.164864
867.551514	72.173912
867.506958	92.207451
867.462463	72.150795
867.417969	76.146973
867.373535	72.127678
867.328979	64.103226
867.284485	64.092957
867.239929	68.087860
867.195435	80.090530
867.150940	64.062164
867.106445	60.048656
867.061890	72.046844
867.017395	68.033340
866.972839	88.029045
866.928345	84.014267
866.883789	96.000923
866.839294	75.988556
866.794739	83.973892
866.750183	47.977398
866.705688	75.952042
866.661133	75.939873
866.616638	95.908684
866.572021	55.937771
866.527527	75.903381
866.482910	51.925575
866.438416	71.885429
866.393860	75.866913
866.349304	75.854759
866.304749	91.809471
866.260193	75.830460
866.215637	75.818306
866.171021	75.806160
866.126465	63.826542
866.081909	55.839275
866.037292	55.830330
865.992676	47.846901
865.948181	59.799046
865.903564	75.733322
865.859009	47.823910
865.814392	71.724373
865.769836	83.665024
865.725159	95.601852
865.680603	87.620995
865.635986	107.517624
865.591431	79.629929
865.546753	63.693733
865.502197	99.505516
865.457581	71.632492
865.412964	91.515739
865.368347	67.631233
865.323792	95.464088
865.279114	91.471756
865.234497	83.504311
865.189880	67.587898
865.145264	83.477554
865.100647	75.515213
865.055969	83.450806
865.011353	67.544586
864.966675	79.451492
864.922058	79.438759
864.877441	95.311241
864.832825	79.413307
864.788147	95.280693
864.743469	95.265427
864.698853	63.500111
864.654175	75.394295
864.609497	111.089584
864.564880	107.104935
864.520203	71.391846
864.475586	115.001762
864.430908	99.123566
864.386169	103.071991
864.341492	83.237114
864.296875	103.038956
864.252136	126.796860
864.207520	99.044174
864.162781	126.756226
864.118103	122.775414
864.073425	95.036705
864.028687	98.980698
863.984009	98.964836
863.939331	110.822853
863.894653	94.975800
863.849976	87.047195
863.805237	94.945358
863.760559	90.974716
863.715820	83.050560
863.671143	106.762184
863.626404	79.070427
863.581665	90.916412
863.536987	79.045082
863.492249	75.080795
863.447571	142.235550
863.402832	79.007088
863.358093	86.893867
863.313354	78.981758
863.268616	102.659836
863.223877	82.904266
863.179138	86.838173
863.134338	110.503593
863.089600	98.648109
863.044861	118.358757
863.000183	67.059212
862.955444	106.488739
862.910645	74.924507
862.865906	90.683556
862.821106	67.016235
862.776367	67.005493
862.731628	59.113014
862.686890	82.744957
862.642090	82.731697
862.597290	55.145622
862.552490	90.581856
862.507751	98.442757
862.463013	74.804504
862.418213	66.919617
862.373352	78.716339
862.328613	59.027794
862.283813	62.952888
862.239014	98.348122
862.194275	66.865997
862.149475	66.855286
862.104675	51.116432
862.059814	82.559464
862.015076	23.584637
861.970215	62.882282
861.925415	55.013176
861.880615	66.791008
861.835754	39.282528
