#Wave		#Intensity
899.963257	388.476837
899.920715	361.373810
899.878235	420.029633
899.835815	374.804993
899.793274	365.714844
899.750793	356.627594
899.708252	361.083923
899.665771	365.538788
899.623230	351.943848
899.580688	410.535248
899.538208	356.341553
899.495667	401.383636
899.453186	441.902100
899.410645	428.305725
899.368103	378.651672
899.325623	319.999451
899.283020	360.504913
899.240540	414.514130
899.197998	405.437897
899.155396	423.389404
899.112854	387.294098
899.070312	387.231964
899.027771	324.142181
898.985229	441.122742
898.942688	364.542938
898.900085	346.485229
898.857544	368.925049
898.814941	382.360962
898.772400	391.294891
898.729797	400.225952
898.687256	404.657959
898.644714	319.178955
898.602112	301.148712
898.559570	310.088470
898.516907	381.931763
898.474304	359.407501
898.431763	462.662933
898.389221	305.398376
898.346558	377.196289
898.304016	431.012329
898.261353	404.009247
898.218750	453.315399
898.176147	381.441864
898.133606	372.407013
898.090942	497.958405
898.048340	417.141449
898.005676	484.344635
897.963074	403.555786
897.920471	421.423981
897.877808	381.013763
897.835205	475.070343
897.792542	407.777985
897.749939	448.035797
897.707275	452.443573
897.664673	349.355835
897.622009	344.821594
897.579346	492.523254
897.536743	367.094818
897.494080	425.224548
897.451477	384.878387
897.408752	420.613556
897.366089	380.281036
897.323425	348.907806
897.280823	429.356110
897.238098	371.154602
897.195435	380.037109
897.152710	371.035553
897.110046	446.959106
897.067383	420.074158
897.024719	433.411285
896.982056	406.537109
896.939331	446.672424
896.896667	464.464844
896.854004	468.855652
896.811279	437.528412
896.768555	428.530548
896.725830	548.966675
896.683167	468.554962
896.640442	517.558655
896.597778	441.638702
896.555054	432.647308
896.512268	454.875763
896.469604	432.508575
896.426880	534.976379
896.384094	499.231201
896.341431	432.300537
896.298706	516.895081
896.255920	472.259399
896.213257	485.547363
896.170532	476.561829
896.127747	485.391663
896.085022	440.789642
896.042236	503.042847
895.999512	489.609222
895.956787	458.378754
895.913940	391.561768
895.871216	489.373749
895.828430	435.917603
895.785767	555.928223
895.742981	435.777832
895.700195	449.045959
895.657410	533.434387
895.614624	435.568268
895.571838	582.145874
895.529114	528.734741
895.486267	515.322632
895.443481	515.240051
895.400757	541.803467
895.357910	559.477844
895.315125	572.706909
895.272339	523.787415
895.229553	572.523254
895.186768	594.618774
895.143921	598.960205
895.101135	554.503845
895.058350	651.992004
895.015442	549.891479
894.972656	598.576172
894.929871	545.281982
894.887024	611.681702
894.844238	655.901306
894.801392	549.450867
894.758545	584.805542
894.715698	589.141418
894.672913	558.044495
894.630066	557.955017
894.587219	602.140625
894.544373	646.312073
894.501526	681.617188
894.458679	619.552612
894.415894	592.905334
894.372986	614.930054
894.330078	610.408264
894.287292	685.493591
894.244446	552.728821
894.201538	627.799255
894.158691	663.061951
894.115845	649.696533
894.072876	707.039368
894.030029	724.599182
893.987183	733.318176
893.944275	675.781311
893.901428	737.499329
893.858521	715.303833
893.815552	754.921936
893.772766	745.972839
893.729858	763.506592
893.686951	767.796875
893.644043	758.849976
893.601135	674.915344
893.558167	732.143738
893.515320	714.387207
893.472412	727.499939
893.429504	784.692383
893.386536	797.789612
893.343689	828.510559
893.300720	806.346497
893.257812	691.672729
893.214844	779.658936
893.171936	748.704956
893.129028	735.374634
893.086060	836.519714
893.043091	840.787659
893.000183	814.244995
892.957275	787.710815
892.914307	818.383972
892.871338	853.446472
892.828430	813.723206
892.785461	853.172974
892.742493	848.639160
892.699524	892.467041
892.656555	830.784424
892.613525	896.576050
892.570618	927.192322
892.527649	935.830872
892.484619	839.037781
892.441711	935.530945
892.398682	1005.644409
892.355652	895.714355
892.312744	974.591797
892.269775	991.993042
892.226746	939.170349
892.183777	996.063110
892.140686	873.060791
892.097717	1035.222778
892.054749	973.655212
892.011719	916.492493
891.968750	951.421082
891.925720	1017.024536
891.882751	955.499207
891.839722	946.581482
891.796692	863.179016
891.753662	1003.230103
891.710632	946.126587
891.667603	950.354492
891.624573	888.898865
891.581482	915.025085
891.538513	923.633301
891.495422	1024.149536
891.452454	993.353455
891.409363	1006.320251
891.366272	1019.282837
891.323242	1019.119507
891.280273	1080.181030
891.237122	996.930481
891.194092	1132.296631
891.151062	1014.095459
891.107971	1066.377808
891.064880	1101.164551
891.021851	1144.678223
890.978760	1096.443481
890.935730	1161.781860
890.892639	1144.128052
890.849548	1065.353149
890.806458	1091.375488
890.763367	1235.239136
890.720276	1208.856689
890.677185	1077.760864
890.634155	1151.754272
890.591003	1121.035645
890.547913	1129.578735
890.504761	1103.234131
890.461731	1185.895630
890.418579	1094.162231
890.375488	985.024109
890.332336	1067.664795
890.289246	1115.422119
890.246155	1176.233276
890.203003	1141.199097
890.159912	1088.755981
890.116760	1166.959473
890.073669	1123.236206
890.030457	1123.056274
889.987366	1170.750977
889.944214	1083.532715
889.901062	1192.130127
889.857910	1187.588989
889.814758	1222.194336
889.771606	1261.137329
889.728516	1247.891235
889.685364	1221.607178
889.642212	1147.518311
889.598999	1334.210938
889.555908	1255.782349
889.512695	1246.892090
889.469543	1142.439331
889.426392	1207.404053
889.383240	1311.430298
889.340027	1267.802368
889.296875	1237.211670
889.253723	1271.736694
889.210449	1245.494751
889.167297	1184.549072
889.124146	1206.051025
889.080933	1088.742065
889.037781	1153.621582
888.994507	1118.746948
888.951294	1105.561157
888.908081	1122.723511
888.864868	1174.553467
888.821716	1161.364990
888.778503	1139.515137
888.735291	1061.355469
888.692078	1186.795288
888.648804	1268.887939
888.605652	1225.384888
888.562378	1052.017090
888.519226	1203.349487
888.475952	1194.500977
888.432739	1112.092651
888.389465	1194.118408
888.346252	1267.466187
888.303040	1267.263184
888.259766	1254.086914
888.216492	1232.267334
888.173279	1305.561890
888.130066	1180.004272
888.086731	1132.276978
888.043457	1222.836182
888.000244	1205.359131
887.956970	1222.444458
887.913696	1127.232910
887.870483	1200.461914
887.827209	1269.349976
887.783936	1221.661621
887.740601	1208.517578
887.697327	1178.115967
887.654053	1255.592773
887.610779	1294.218262
887.567505	1125.789551
887.524231	1224.800903
887.480957	1263.412720
887.437622	1271.833008
887.394348	1206.970215
887.351074	1232.636353
887.307739	1318.623535
887.264404	1206.390381
887.221130	1356.971924
887.177734	1257.689941
887.134460	1304.859741
887.091125	1261.593018
887.047852	1338.882568
887.004517	1394.625366
886.961182	1437.439087
886.917908	1419.996826
886.874573	1350.932129
886.831238	1350.715820
886.787842	1367.703369
886.744568	1401.886475
886.701172	1362.965820
886.657837	1349.850952
886.614502	1353.932983
886.571167	1474.046509
886.527832	1392.170776
886.484436	1477.870605
886.441101	1297.225098
886.397766	1417.270752
886.354370	1313.986084
886.310974	1309.482300
886.267639	1433.760742
886.224304	1412.071167
886.180908	1532.002075
886.137451	1471.687866
886.094177	1424.262817
886.050781	1539.844849
886.007385	1509.578247
885.963989	1552.215454
885.920593	1564.828491
885.877197	1504.566772
885.833862	1568.613281
885.790405	1551.221558
885.747009	1645.231201
885.703613	1704.940552
885.660217	1674.685913
885.616821	1721.524170
885.573364	1631.332642
885.529968	1789.469360
885.486511	1784.902588
885.443115	1711.862549
885.399719	1677.356689
885.356323	1775.488770
885.312805	1659.709229
885.269409	1757.812622
885.225952	1825.950806
885.182556	1791.454102
885.139099	1752.693481
885.095642	1739.590332
885.052185	1735.038330
885.008728	1850.126465
884.965332	1687.489502
884.921875	1691.490723
884.878418	1738.198242
884.835022	1729.379761
884.791504	1758.988647
884.748108	1745.900879
884.704590	1643.188843
884.661072	1813.619385
884.617615	1766.395752
884.574219	1714.921265
884.530762	1808.483032
884.487244	1812.458130
884.443726	1940.085693
884.400269	1926.985352
884.356812	1837.163086
884.313232	1943.415894
884.269836	1998.500244
884.226257	2057.827637
884.182739	1891.364624
884.139343	2014.577148
884.095825	1941.860718
884.052307	2137.407959
884.008789	1958.267456
883.965332	1902.620361
883.921753	1791.666626
883.878235	1829.675293
883.834717	1850.654175
883.791199	1795.059937
883.747681	1956.387085
883.704163	1926.307617
883.660645	1887.734253
883.617126	1649.377563
883.573547	1797.873779
883.530029	1814.584351
883.486511	1895.023560
883.442932	1915.961426
883.399414	1996.358643
883.355896	1898.360474
883.312317	1893.810425
883.268738	1901.998291
883.225220	2016.304810
883.181641	2028.714478
883.138062	1981.711304
883.094482	2083.221680
883.050964	2218.636475
883.007385	2209.798340
882.963745	2145.833008
882.920227	2187.890381
882.876648	2302.004395
882.833069	2238.054688
882.789429	2258.886719
882.745911	2097.504639
882.702332	2347.134521
882.658691	2338.286621
882.615112	2371.795166
882.571533	2358.711426
882.527954	2277.887939
882.484314	2294.456543
882.440735	2158.644775
882.397156	2111.747803
882.353516	2166.416260
882.309875	2157.608398
882.266296	2081.124268
882.222656	2106.166504
882.179016	2110.058105
882.135437	2088.580811
882.091797	2138.972900
882.048218	1982.248535
882.004517	1998.834717
881.960876	2023.865845
881.917236	2010.868286
881.873657	2086.575439
881.829956	2124.250000
881.786316	2123.909912
881.742737	2056.020996
881.699036	2178.104736
881.655396	2169.314941
881.611694	2143.649170
881.568054	2117.991211
881.524414	2045.938965
881.480774	2151.055420
881.437073	2108.540039
881.393372	1998.576050
881.349731	2010.903320
881.306091	1976.860962
881.262390	1959.687012
881.218689	2022.578979
881.174988	1794.751465
881.131348	1853.437134
881.087646	1933.162476
881.044006	1916.008911
881.000244	1915.702271
880.956604	1734.380127
880.912903	1805.655273
880.869141	1792.741333
880.825500	1851.361328
880.781799	1808.995239
880.738098	1854.974854
880.694397	1854.677979
880.650574	1660.953613
880.606934	1635.462036
880.563232	1635.200317
880.519470	1723.199951
880.475769	1592.654297
880.432007	1781.470459
880.388306	1751.778931
880.344604	1927.908447
880.300842	1738.619507
880.257080	1851.711182
880.213379	1843.018433
880.169617	1779.760132
880.125854	1758.490845
880.082092	1863.114502
880.038391	1632.062012
879.994629	1791.205444
879.950867	1732.200073
879.907104	1828.373657
879.863342	1668.752808
879.819580	1660.101318
879.775818	1643.069580
879.732056	1726.623291
879.688293	1588.071533
879.644531	1587.817261
879.600708	1495.409058
879.556946	1511.922363
879.513123	1394.430908
879.469299	1415.141724
879.425598	1364.681519
879.381775	1406.317749
879.338013	1339.135864
879.294189	1485.365967
879.250427	1510.229004
879.206604	1401.234741
879.162781	1371.735596
879.119019	1434.237793
879.075134	1471.635254
879.031372	1387.797363
878.987549	1341.601318
878.943726	1370.638062
878.899963	1487.405518
878.856140	1491.344971
878.812317	1407.570801
878.768433	1415.697754
878.724609	1469.751709
878.680786	1352.623047
878.636963	1369.102905
878.593079	1335.496338
878.549255	1168.372314
878.505432	1297.520020
878.461609	1297.312378
878.417725	1242.884888
878.373840	1251.026123
878.330017	1184.115112
878.286194	1108.888062
878.242310	1217.080688
878.198425	1187.713989
878.154602	1241.691650
878.110718	1116.510376
878.066895	1078.842896
878.022949	1103.658691
877.979065	1028.528564
877.935181	1057.507812
877.891296	1078.152344
877.847473	1053.007202
877.803589	1111.098511
877.759705	1060.991577
877.715759	1110.742798
877.671936	1035.695435
877.627991	1093.752197
877.584106	1081.102905
877.540222	1151.605957
877.496277	972.681091
877.452393	976.681519
877.408447	951.592590
877.364563	922.356934
877.320679	897.284729
877.276672	992.669983
877.232788	909.455750
877.188904	896.853882
877.144958	880.104553
877.101013	958.828369
877.057068	867.372498
877.013184	858.934753
876.969238	833.904602
876.925354	825.474915
876.881348	804.605469
876.837402	837.651001
876.793457	729.717712
876.749512	820.801025
876.705566	737.773682
876.661560	824.682373
876.617676	758.254883
876.573730	762.276306
876.529724	795.291382
876.485779	753.749268
876.441833	728.783752
876.397888	828.030762
876.353821	774.084839
876.309875	790.516235
876.265869	695.211853
876.221924	695.100586
876.177917	761.178772
876.133972	727.967468
876.089966	818.832336
876.046021	806.296692
876.002014	785.496643
875.958008	789.504456
875.913940	764.580811
875.869995	714.871948
875.825989	747.809875
875.781982	747.690186
875.737976	735.179810
875.693970	722.673462
875.649902	743.202271
875.605896	705.929138
875.561890	718.198853
875.517883	660.307007
875.473877	668.453857
875.429810	697.226013
875.385864	676.489685
875.341736	742.369812
875.297791	721.632935
875.253723	791.607666
875.209656	725.524170
875.165588	721.286377
875.121521	766.501709
875.077454	778.739929
875.033447	766.256287
874.989380	807.323608
874.945374	815.431030
874.901306	840.006592
874.857239	843.989136
874.813110	831.504944
874.769104	888.991638
874.725037	827.123657
874.680969	843.448792
874.636841	855.654968
874.592773	966.570801
874.548706	818.369324
874.504639	900.473328
874.460571	805.774048
874.416443	846.749390
874.372437	928.809387
874.328308	850.587463
874.284180	891.535889
874.240051	817.452698
874.196045	891.250427
874.151917	862.362366
874.107788	878.647583
874.063660	853.875916
874.019531	812.694031
873.975464	853.602539
873.931335	902.704285
873.887207	927.175049
873.843079	869.600159
873.798950	980.194214
873.754822	914.428101
873.710754	959.380798
873.666565	885.440491
873.622437	1008.256897
873.578308	979.409851
873.534180	921.890930
873.489990	942.226501
873.445862	1040.379272
873.401672	1023.831360
873.357605	986.815430
873.313416	1056.255615
873.269287	1035.619751
873.225098	1064.102905
873.180969	1137.589355
873.136780	953.294556
873.092590	1039.047485
873.048462	1092.052246
873.004272	948.747375
872.960083	1034.459717
872.915894	952.531738
872.871765	1025.953613
872.827576	993.094849
872.783386	1127.778931
872.739197	1111.256348
872.695007	1074.314819
872.650818	1213.005371
872.606567	1078.054443
872.562439	1012.555664
872.518188	1094.038208
872.474060	1155.086670
872.429810	1150.820801
872.385559	1085.352173
872.341370	1142.293091
872.297241	1093.162598
872.252930	1211.258667
872.208740	1255.918945
872.164551	1170.100708
872.120361	1194.371582
872.076050	1226.785889
872.031860	1259.189819
871.987610	1275.285889
871.943359	1230.270508
871.899109	1185.269531
871.854919	1270.600952
871.810608	1164.531006
871.766418	1143.988892
871.722168	1127.523804
871.677917	1159.901855
871.633667	1147.508667
871.589417	1118.845215
871.545166	1094.258789
871.500916	1216.100342
871.456665	1211.839111
871.412354	1134.392456
871.368103	1073.231812
871.323853	1077.124512
871.279602	1089.144043
871.235229	1105.222900
871.190979	1170.048584
871.146790	1104.869019
871.102417	1133.121582
871.058105	1088.272339
871.013916	1035.317139
870.969604	1108.220947
870.925293	1087.749634
870.880981	1034.819946
870.836731	1087.401245
870.792419	1075.056763
870.748047	1042.435181
870.703796	993.602051
870.659485	1001.552673
870.615173	1066.259888
870.570862	1013.392700
870.526550	924.066162
870.482178	891.500000
870.437866	875.150757
870.393555	798.042053
870.349243	806.014954
870.304932	854.481995
870.260559	817.903870
870.216248	882.546997
870.171875	712.400940
870.127563	752.757690
870.083252	704.079895
870.038879	748.470825
869.994507	691.718994
869.950195	707.786194
869.905823	659.146729
869.861511	646.911560
869.817078	630.637756
869.772766	707.332947
869.728394	585.981995
869.684021	666.700317
869.639648	678.713440
869.595276	682.644043
869.550903	585.606750
869.506531	561.284851
869.462158	512.746460
869.417786	557.068359
869.373413	496.437927
869.328979	508.464722
869.284607	564.870300
869.240234	447.789734
869.195862	431.584045
869.151428	483.941986
869.107056	395.155975
869.062622	378.966461
869.018250	390.998505
868.973877	354.663483
868.929443	362.665924
868.885010	435.129425
868.840637	350.464783
868.796143	326.242554
868.751770	350.352539
868.707336	322.111664
868.662903	309.982819
868.618469	293.832733
868.574036	281.712311
868.529663	346.048248
868.485229	297.714752
868.440735	301.689606
868.396301	321.750702
868.351868	301.592957
868.307434	309.585846
868.263000	309.536285
868.218506	293.409454
868.174072	313.455780
868.129578	277.243408
868.085144	293.268494
868.040710	277.154602
867.996277	277.110199
867.951721	216.834122
867.907288	256.947418
867.862793	252.892105
867.818359	248.838089
867.773865	220.708099
867.729370	224.684982
867.684937	228.660583
867.640442	196.536392
867.595947	224.577042
867.551514	180.434784
867.506958	176.396866
867.462463	204.427246
867.417969	228.440918
867.373535	196.347580
867.328979	192.309677
867.284485	168.244003
867.239929	176.227402
867.195435	152.172012
867.150940	204.198135
867.106445	180.145966
867.061890	220.143127
867.017395	228.111786
866.972839	256.084503
866.928345	184.031250
866.883789	224.002151
866.839294	247.962646
866.794739	207.935364
866.750183	167.920883
866.705688	183.883896
866.661133	215.829117
866.616638	199.809769
866.572021	151.831100
866.527527	167.786423
866.482910	175.748108
866.438416	211.662659
866.393860	199.649765
866.349304	199.617783
866.304749	171.643799
866.260193	159.643066
866.215637	163.607925
866.171021	143.632721
866.126465	211.425415
866.081909	195.437469
866.037292	195.406158
865.992676	175.438644
865.948181	191.356949
865.903564	143.494720
865.859009	179.339661
865.814392	175.326233
865.769836	195.218399
865.725159	211.120758
865.680603	215.069702
865.635986	199.106705
865.591431	163.241348
865.546753	203.023773
865.502197	222.892349
865.457581	155.203735
865.412964	226.799881
865.368347	202.893692
865.323792	175.017487
865.279114	202.828674
865.234497	147.126648
865.189880	182.884903
865.145264	194.780960
865.100647	230.520111
865.055969	174.849304
865.011353	246.339096
864.966675	178.765854
864.922058	210.512711
864.877441	154.880768
864.832825	158.826614
864.788147	226.291656
864.743469	242.132965
864.698853	178.594055
864.654175	214.278534
864.609497	210.276703
864.564880	210.243011
864.520203	190.378250
864.475586	210.175644
864.430908	265.651154
864.386169	214.072601
864.341492	174.401566
864.296875	233.819183
864.252136	285.292938
864.207520	217.897171
864.162781	289.162628
864.118103	209.906357
864.073425	265.310791
864.028687	245.472137
863.984009	225.639832
863.939331	237.477554
863.894653	241.396820
863.849976	245.314819
863.805237	272.967896
863.760559	241.280777
863.715820	233.332535
863.671143	241.203445
863.626404	253.025360
863.581665	264.843475
863.536987	260.848785
863.492249	327.984528
863.447571	304.226044
863.402832	221.219833
863.358093	197.486053
863.313354	205.352585
863.268616	173.732025
863.223877	252.660629
863.179138	236.831375
863.134338	205.220963
863.089600	240.701385
863.044861	240.662811
863.000183	248.513565
862.955444	236.641647
862.910645	185.339584
862.865906	220.794739
862.821106	220.759354
