#Wave		#Intensity
899.963257	126.480827
899.920715	140.032349
899.878235	108.394737
899.835815	90.314453
899.793274	108.359955
899.750793	139.942474
899.708252	139.920013
899.665771	99.282143
899.623230	135.363022
899.580688	117.295784
899.538208	103.745010
899.495667	117.258148
899.453186	121.748535
899.410645	135.254440
899.368103	130.724976
899.325623	112.675865
899.283020	108.151474
899.240540	103.628532
899.197998	126.136230
899.155396	103.595276
899.112854	121.592339
899.070312	85.551247
899.027771	117.051346
898.985229	112.531311
898.942688	121.514313
898.900085	103.495590
898.857544	107.978065
898.814941	134.950928
898.772400	130.431641
898.729797	148.398392
898.687256	98.916389
898.644714	85.414085
898.602112	103.379410
898.559570	130.327042
898.516907	121.319496
898.474304	98.837067
898.431763	125.772453
898.389221	116.769966
898.346558	125.732101
898.304016	116.732506
898.261353	179.559662
898.218750	121.183327
898.176147	107.701233
898.133606	125.631279
898.090942	80.750008
898.048340	125.590981
898.005676	98.662796
897.963074	125.550690
897.920471	147.946716
897.877808	134.475449
897.835205	147.899261
897.792542	134.432297
897.749939	94.087517
897.707275	134.389175
897.664673	107.494102
897.622009	111.955063
897.579346	138.802002
897.536743	102.965614
897.494080	116.377243
897.451477	161.111877
897.408752	107.390694
897.366089	134.216843
897.323425	134.195312
897.280823	111.811485
897.238098	129.680527
897.195435	116.246651
897.152710	125.168625
897.110046	147.496506
897.067383	147.472839
897.024719	169.789978
896.982056	151.892990
896.939331	147.401901
896.896667	142.912262
896.854004	156.285217
896.811279	160.724731
896.768555	178.554382
896.725830	160.673172
896.683167	147.260132
896.640442	156.159943
896.597778	160.595886
896.555054	191.792114
896.512268	151.625259
896.469604	160.518646
896.426880	182.783585
896.384094	173.839432
896.341431	169.354858
896.298706	164.871704
896.255920	169.300537
896.213257	173.727951
896.170532	169.246246
896.127747	124.687767
896.085022	164.739563
896.042236	151.358032
895.999512	195.843689
895.956787	173.560883
895.913940	146.835663
895.871216	173.505234
895.828430	142.340439
895.785767	151.212463
895.742981	155.634933
895.700195	142.271988
895.657410	115.577454
895.614624	177.782959
895.571838	173.310593
895.529114	124.408173
895.486267	159.927719
895.443481	177.668976
895.400757	173.199478
895.357910	182.052307
895.315125	173.143951
895.272339	195.310577
895.229553	159.773941
895.186768	133.123596
895.143921	164.159454
895.101135	137.516953
895.058350	168.542145
895.015442	190.688171
894.972656	177.355911
894.929871	172.894287
894.887024	132.974289
894.844238	221.588287
894.801392	181.673264
894.758545	221.517242
894.715698	168.326111
894.672913	137.296661
894.630066	154.987518
894.587219	212.520233
894.544373	128.377060
894.501526	146.060822
894.458679	203.567291
894.415894	168.137329
894.372986	207.925995
894.330078	163.660187
894.287292	190.169189
894.244446	198.982361
894.201538	176.844864
894.158691	172.396103
894.115845	172.368469
894.072876	176.759842
894.030029	225.332672
893.987183	203.208664
893.944275	220.843567
893.901428	194.311203
893.858521	207.526413
893.815552	158.930923
893.772766	172.147583
893.729858	233.906647
893.686951	158.854523
893.644043	180.888657
893.601135	242.616623
893.558167	207.293701
893.515320	233.719269
893.472412	185.181808
893.429504	171.926987
893.386536	163.084076
893.343689	167.464905
893.300720	163.031799
893.257812	158.600113
893.214844	207.028076
893.171936	259.844666
893.129028	180.541077
893.086060	206.928558
893.043091	167.277130
893.000183	228.868866
892.957275	198.027847
892.914307	215.595779
892.871338	206.762802
892.828430	171.541641
892.785461	189.105347
892.742493	189.075043
892.699524	197.837524
892.656555	241.762665
892.613525	237.328949
892.570618	188.953873
892.527649	188.923599
892.484619	193.286194
892.441711	210.823883
892.398682	193.224258
892.355652	223.928589
892.312744	171.212067
892.269775	223.856827
892.226746	223.820969
892.183777	179.905670
892.140686	228.136490
892.097717	245.646072
892.054749	153.504196
892.011719	210.486313
891.968750	245.528015
891.925720	162.197876
891.882751	197.236084
891.839722	148.998932
891.796692	210.317734
891.753662	170.855774
891.710632	219.010773
891.667603	214.596176
891.624573	205.804169
891.581482	227.661743
891.538513	240.757492
891.495422	188.198425
891.452454	201.296295
891.409363	205.639359
891.366272	214.355621
891.323242	214.321274
891.280273	205.540527
891.237122	192.390091
891.194092	249.192688
891.151062	271.008270
891.107971	196.668045
891.064880	209.745636
891.021851	231.557037
890.978760	205.310135
890.935730	196.542038
890.892639	257.647156
890.849548	213.943878
890.806458	222.640610
890.763367	231.334549
890.720276	226.933380
890.677185	218.170212
890.634155	205.047150
890.591003	205.014297
890.547913	218.065384
890.504761	261.636536
890.461731	191.836060
890.418579	174.368484
890.375488	174.340546
890.332336	230.964218
890.289246	243.998581
890.246155	222.177399
890.203003	187.296036
890.159912	200.331100
890.116760	209.007660
890.073669	248.156845
890.030457	221.999496
889.987366	235.020645
889.944214	234.983002
889.901062	274.102905
889.857910	208.806870
889.814758	213.122864
889.771606	208.739975
889.728516	256.535126
889.685364	208.673111
889.642212	278.186249
889.598999	182.530487
889.555908	252.025528
889.512695	234.606873
889.469543	251.944794
889.426392	243.218079
889.383240	251.864090
889.340027	234.456604
889.296875	269.147797
889.253723	217.019897
889.210449	182.267517
889.167297	212.611389
889.124146	199.562393
889.080933	247.244232
889.037781	225.520004
888.994507	216.811432
888.951294	255.796509
888.908081	281.764587
888.864868	203.704834
888.821716	247.006729
888.778503	216.637863
888.735291	246.927612
888.692078	277.207642
888.648804	272.832581
888.605652	238.149017
888.562378	268.415894
888.519226	216.429764
888.475952	233.706711
888.432739	246.650909
888.389465	242.284897
888.346252	242.246094
888.303040	281.133453
888.259766	237.844055
888.216492	250.777206
888.173279	220.475677
888.130066	272.308685
888.086731	233.370071
888.043457	241.974640
888.000244	289.459015
887.956970	332.608582
887.913696	285.047424
887.870483	263.410706
887.827209	237.463440
887.783936	267.643188
887.740601	263.284180
887.697327	194.194931
887.654053	224.367096
887.610779	254.529602
887.567505	297.622528
887.524231	284.636841
887.480957	237.159378
887.437622	275.923096
887.394348	293.121338
887.351074	267.214874
887.307739	258.553650
887.264404	258.512238
887.221130	249.855148
887.177734	211.050720
887.134460	271.307465
887.091125	271.264038
887.047852	331.491821
887.004517	275.481567
886.961182	266.830017
886.917908	292.605408
886.874573	318.372559
886.831238	309.718292
886.787842	249.455338
886.744568	305.318848
886.701172	279.472473
886.657837	318.117737
886.614502	232.102798
886.571167	322.313385
886.527832	270.699890
886.484436	283.544952
886.441101	287.794983
886.397766	322.106995
886.354370	266.232452
886.310974	317.710449
886.267639	261.854523
886.224304	278.980621
886.180908	304.683899
886.137451	321.797638
886.094177	278.846649
886.050781	317.405334
886.007385	317.354523
885.963989	317.303711
885.920593	270.093689
885.877197	270.050446
885.833862	278.578857
885.790405	278.534241
885.747009	295.627472
885.703613	304.147675
885.660217	316.948242
885.616821	304.050293
885.573364	312.565033
885.529968	295.390869
885.486511	291.063232
885.443115	320.974243
885.399719	325.201813
885.356323	342.262878
885.312805	303.709686
885.269409	290.830292
885.225952	307.888672
885.182556	320.666016
885.139099	341.988983
885.095642	371.853485
885.052185	320.512024
885.008728	311.915070
884.965332	277.688141
884.921875	290.458008
884.878418	294.682251
884.835022	294.635071
884.791504	337.281799
884.748108	303.078156
884.704590	337.173798
884.661072	328.585144
884.617615	324.265900
884.574219	315.682037
884.530762	307.100891
884.487244	332.639374
884.443726	315.530426
884.400269	311.216675
884.356812	336.742188
884.313232	357.997681
884.269836	302.544830
884.226257	319.538422
884.182739	400.424042
884.139343	362.027618
884.095825	319.384979
884.052307	319.333862
884.008789	323.539825
883.965332	319.231628
883.921753	323.436249
883.878235	268.068695
883.834717	302.060791
883.791199	314.773529
883.747681	318.976166
883.704163	297.663422
883.660645	276.357483
883.617126	335.826874
883.573547	280.519318
883.530029	386.714691
883.486511	305.923096
883.442932	297.377625
883.399414	327.063019
883.355896	305.776184
883.312317	322.712067
883.268738	305.678284
883.225220	275.915375
883.181641	318.312958
883.138062	326.748962
883.094482	322.453857
883.050964	279.980896
883.007385	330.833527
882.963745	305.335907
882.920227	360.408295
882.876648	373.068848
882.833069	351.815430
882.789429	355.997162
882.745911	275.429901
882.702332	343.173096
882.658691	338.882111
882.615112	351.533905
882.571533	359.946991
882.527954	347.187378
882.484314	287.865387
882.440735	317.447784
882.397156	300.469116
882.353516	308.883575
882.309875	287.681122
882.266296	317.244537
882.222656	312.964508
882.179016	329.828705
882.135437	257.901672
882.091797	249.405945
882.048218	363.482666
882.004517	287.358887
881.960876	274.637329
881.917236	295.715912
881.873657	287.220917
881.829956	312.513885
881.786316	316.686371
881.742737	320.857483
881.699036	354.575165
881.655396	333.416138
881.611694	291.164948
881.568054	303.775635
881.524414	299.508575
881.480774	320.549408
881.437073	244.590652
881.393372	316.230408
881.349731	265.591003
881.306091	320.344208
881.262390	303.435425
881.218689	294.959412
881.174988	231.716736
881.131348	269.590851
881.087646	320.087891
881.044006	273.715576
881.000244	214.727066
880.956604	273.627930
880.912903	252.539200
880.869141	231.457214
880.825500	277.704193
880.781799	239.797043
880.738098	307.059326
880.694397	256.542755
880.650574	302.756104
880.606934	285.890533
880.563232	248.012375
880.519470	210.146332
880.475769	289.955536
880.432007	273.102783
880.388306	218.447250
880.344604	319.217957
880.300842	239.375137
880.257080	247.734604
880.213379	260.289612
880.169617	214.074921
880.125854	235.025040
880.082092	268.557037
880.038391	251.731918
879.994629	222.327606
879.950867	264.233917
879.907104	234.836990
879.863342	243.185089
879.819580	251.530518
879.775818	222.149719
879.732056	234.686661
879.688293	238.839249
879.644531	263.937958
879.600708	263.895721
879.556946	226.160126
879.513123	217.748962
879.469299	251.208588
879.425598	234.423813
879.381775	213.458939
879.338013	225.979172
879.294189	238.495392
879.250427	200.806076
879.206604	263.515778
879.162781	250.927231
879.119019	225.798370
879.075134	221.581436
879.031372	246.626648
878.987549	238.228271
878.943726	242.368912
878.899963	162.946121
878.856140	233.936462
878.812317	208.838409
878.768433	196.276672
878.724609	254.701294
878.680786	208.738129
878.636963	229.575195
878.593079	208.671310
878.549255	200.292389
878.505432	208.604507
878.461609	237.771072
878.417725	158.488678
878.373840	150.123138
878.330017	154.268524
878.286194	154.243820
878.242310	175.059555
878.198425	179.198959
878.154602	212.504272
878.110718	208.304169
878.066895	174.947495
878.022949	179.084244
877.979065	224.860489
877.935181	187.353745
877.891296	158.184509
877.847473	166.483353
877.803589	170.618118
877.759705	174.751556
877.715759	187.203842
877.671936	178.855042
877.627991	145.556381
877.584106	182.955872
877.540222	187.084000
877.496277	203.681091
877.452393	178.711929
877.408447	178.683319
877.364563	178.654724
877.320679	191.088409
877.276672	157.830383
877.232788	178.568939
877.188904	166.084061
877.144958	166.057465
877.101013	161.880112
877.057068	145.253769
877.013184	161.828293
876.969238	157.653610
876.925354	145.184021
876.881348	157.603134
876.837402	182.458633
876.793457	161.698807
876.749512	157.527466
876.705566	124.343880
876.661560	128.468109
876.617676	149.164886
876.573730	153.283813
876.529724	136.690704
876.485779	173.942139
876.441833	178.055115
876.397888	169.746307
876.353821	177.998123
876.309875	182.108444
876.265869	157.250305
876.221924	157.225128
876.177917	173.747330
876.133972	153.038620
876.089966	157.149643
876.046021	177.798752
876.002014	165.367722
875.958008	198.409485
875.913940	144.650421
875.869995	136.362854
875.825989	169.393402
875.781982	148.711853
875.737976	128.036926
875.693970	152.793808
875.649902	144.511551
875.605896	136.231934
875.561890	132.082550
875.517883	140.315247
875.473877	169.176590
875.429810	127.893524
875.385864	152.622681
875.341736	181.468185
875.297791	140.202972
875.253723	181.410080
875.209656	144.280380
875.165588	140.135651
875.121521	177.201996
875.077454	173.053314
875.033447	181.264923
874.989380	160.640915
874.945374	131.786835
874.901306	160.589493
874.857239	156.446762
874.813110	152.305359
874.769104	156.396683
874.725037	168.716766
874.680969	189.261688
874.636841	181.003937
874.592773	197.427231
874.548706	185.058395
874.504639	197.364014
874.460571	164.443680
874.416443	152.086060
874.372437	147.951935
874.328308	160.255600
874.284180	139.687653
874.240051	151.988693
874.196045	193.035812
874.151917	147.833542
874.107788	114.963242
874.063660	172.417252
874.019531	168.285126
873.975464	160.050476
873.931335	147.715240
873.887207	131.281418
873.843079	164.075500
873.798950	164.049240
873.754822	196.827576
873.710754	172.196548
873.666565	118.878586
873.622437	172.141418
873.578308	143.428223
873.534180	192.572769
873.489990	163.865479
873.445862	106.495514
873.401672	204.766266
873.357605	167.881454
873.313416	159.666550
873.269287	163.734344
873.225098	180.078949
873.180969	151.405777
873.136780	147.290146
873.092590	192.264694
873.048462	184.053741
873.004272	147.219421
872.960083	163.550949
872.915894	175.789108
872.871765	151.236176
872.827576	167.559204
872.783386	138.929291
872.739197	175.676559
872.695007	175.648438
872.650818	151.115158
872.606567	151.090958
872.562439	138.818115
872.518188	175.535980
872.474060	118.365776
872.429810	155.075150
872.385559	102.006790
872.341370	142.786636
872.297241	199.869293
872.252930	187.602356
872.208740	163.106354
872.164551	163.080246
872.120361	167.130493
872.076050	142.649521
872.031860	171.152023
871.987610	162.975830
871.943359	150.728500
871.899109	142.558182
871.854919	150.680237
871.810608	166.943253
871.766418	158.774261
871.722168	150.607864
871.677917	122.094940
871.633667	154.628830
871.589417	154.604065
871.545166	109.832672
871.500916	138.285660
871.456665	150.463242
871.412354	150.439148
871.368103	150.415054
871.323853	154.455597
871.279602	150.366898
871.235229	154.406143
871.190979	182.820099
871.146790	174.666779
871.102417	129.963776
871.058105	138.064392
871.013916	133.982224
870.969604	186.733185
870.925293	146.115616
870.880981	162.324692
870.836731	142.011368
870.792419	141.988617
870.748047	158.190552
870.703796	137.887634
870.659485	162.194763
870.615173	162.168793
870.570862	121.607124
870.526550	109.428886
870.482178	129.672729
870.437866	141.806824
870.393555	121.529251
870.349243	121.509789
870.304932	117.440651
870.260559	121.470879
870.216248	145.741714
870.171875	125.479706
870.127563	113.318359
870.083252	117.346649
870.038879	145.648376
869.994507	84.947945
869.950195	93.023331
869.905823	109.183815
869.861511	137.468704
869.817078	109.148849
869.772766	92.963760
869.728394	117.196404
869.684021	80.812157
869.639648	100.999023
869.595276	117.140106
869.550903	100.966675
869.506531	117.102592
869.462158	100.934341
869.417786	76.697815
869.373413	88.793777
869.328979	92.814987
869.284607	72.626183
869.240234	92.785263
869.195862	80.669914
869.151428	88.722694
869.107056	80.644081
869.062622	64.504929
869.018250	72.556427
868.973877	80.605339
868.929443	68.503563
868.885010	76.550545
868.840637	88.623276
868.796143	68.470657
868.751770	64.432648
868.707336	64.422333
868.662903	64.412010
868.618469	64.401695
868.574036	84.513687
868.529663	68.404884
868.485229	64.370758
868.440735	88.495613
868.396301	60.328255
868.351868	80.424789
868.307434	56.288338
868.263000	76.379082
868.218506	64.308922
868.174072	60.279961
868.129578	100.450508
868.085144	100.434418
868.040710	72.301201
867.996277	84.337891
867.951721	80.308937
867.907288	56.207249
867.862793	68.240730
867.818359	52.175728
867.773865	72.231743
867.729370	64.195709
867.684937	84.243370
867.640442	80.218933
867.595947	60.154564
867.551514	80.193237
867.506958	48.108234
867.462463	56.117283
867.417969	40.077354
867.373535	68.120590
867.328979	32.051613
867.284485	104.151054
867.239929	48.062016
867.195435	80.090530
867.150940	56.054390
867.106445	64.051903
867.061890	72.046844
867.017395	68.033340
866.972839	76.025085
866.928345	72.012230
866.883789	88.000847
866.839294	75.988556
866.794739	55.982597
866.750183	59.971745
866.705688	63.959614
866.661133	59.952534
866.616638	79.923904
866.572021	35.959995
866.527527	47.938980
866.482910	39.942749
866.438416	67.891800
866.393860	55.901936
866.349304	51.900623
866.304749	51.892311
866.260193	43.901844
866.215637	71.827873
866.171021	63.836769
866.126465	43.880745
866.081909	83.758911
866.037292	43.866688
865.992676	63.795868
865.948181	31.892824
865.903564	47.831573
865.859009	27.897280
865.814392	59.770309
865.769836	31.872391
865.725159	59.751160
865.680603	55.758812
865.635986	63.714149
865.591431	59.722443
865.546753	51.751160
865.502197	47.762646
865.457581	71.632492
865.412964	59.684177
865.368347	51.717999
865.323792	39.776703
865.279114	75.563629
865.234497	55.669540
865.189880	39.757587
865.145264	51.676582
865.100647	51.668301
865.055969	67.555412
865.011353	55.624958
864.966675	55.616043
864.922058	51.635193
864.877441	59.569523
864.832825	35.735989
864.788147	63.520466
864.743469	71.449074
864.698853	59.531353
864.654175	55.553692
864.609497	43.642334
864.564880	67.436440
864.520203	59.493206
864.475586	31.724625
864.430908	71.368965
864.386169	67.393227
864.341492	51.527737
864.296875	47.556442
864.252136	51.511223
864.207520	83.197105
864.162781	43.572453
864.118103	59.407459
864.073425	35.638763
864.028687	67.306877
863.984009	67.296089
863.939331	71.243263
863.894653	59.359875
863.849976	51.436977
863.805237	75.165077
863.760559	55.375916
863.715820	59.321831
863.671143	67.220634
863.626404	75.116905
863.581665	27.670214
863.536987	51.379303
863.492249	59.274311
863.447571	63.215797
863.402832	75.056732
863.358093	47.396652
863.313354	67.134499
863.268616	47.381462
863.223877	55.269512
863.179138	47.366276
863.134338	43.412128
863.089600	31.567396
863.044861	63.124672
863.000183	67.059212
862.955444	43.384300
862.910645	55.207535
862.865906	39.427631
862.821106	23.652788
862.776367	63.063992
862.731628	39.408676
862.686890	43.342598
862.642090	39.396046
862.597290	66.962540
862.552490	47.260101
862.507751	23.626263
862.463013	59.056187
862.418213	59.046722
862.373352	23.614902
862.328613	43.287048
862.283813	51.149220
862.239014	35.405323
862.194275	35.399647
862.149475	31.461309
862.104675	39.320332
862.059814	47.176834
862.015076	35.376953
861.970215	27.510998
861.925415	39.295128
861.880615	31.431061
861.835754	43.210781
861.790955	35.348610
861.746155	51.050915
