#Wave		#Intensity
899.963257	140.032349
899.920715	207.789932
899.878235	225.822372
899.835815	189.660355
899.793274	180.599915
899.750793	167.028122
899.708252	216.650360
899.665771	166.974518
899.623230	230.117126
899.580688	212.034698
899.538208	202.979355
899.495667	189.417007
899.453186	207.423431
899.410645	211.898621
899.368103	238.911163
899.325623	198.309525
899.283020	202.784012
899.240540	211.762650
899.197998	144.155685
899.155396	189.173981
899.112854	180.136795
899.070312	247.648346
899.027771	180.078995
898.985229	202.556366
898.942688	238.528107
898.900085	206.991180
898.857544	197.959793
898.814941	220.419846
898.772400	175.408066
898.729797	188.870682
898.687256	188.840378
898.644714	233.764862
898.602112	197.769302
898.559570	206.725647
898.516907	170.745956
898.474304	161.733383
898.431763	197.642426
898.389221	215.575317
898.346558	255.954636
898.304016	228.975296
898.261353	179.559662
898.218750	219.925293
898.176147	210.914917
898.133606	206.394241
898.090942	179.444473
898.048340	188.386459
898.005676	197.325592
897.963074	228.681610
897.920471	228.644928
897.877808	251.020828
897.835205	259.944153
897.792542	201.648453
897.749939	246.419693
897.707275	268.778351
897.664673	223.946045
897.622009	259.735748
897.579346	219.396729
897.536743	183.547409
897.494080	219.326355
897.451477	205.865173
897.408752	241.629059
897.366089	223.694733
897.323425	201.292969
897.280823	232.567902
897.238098	219.115372
897.195435	174.369980
897.152710	183.282623
897.110046	214.540359
897.067383	196.630463
897.024719	232.344193
896.982056	250.176682
896.939331	178.668976
896.896667	285.824524
896.854004	236.660461
896.811279	236.622513
896.768555	205.337555
896.725830	236.546631
896.683167	258.820831
896.640442	276.626190
896.597778	258.737823
896.555054	285.458038
896.512268	263.114410
896.469604	280.907623
896.426880	231.823090
896.384094	276.360138
896.341431	187.181671
896.298706	258.447540
896.255920	289.593048
896.213257	249.455536
896.170532	267.230927
896.127747	236.016129
896.085022	204.811340
896.042236	311.619476
895.999512	235.902618
895.956787	226.964233
895.913940	222.478271
895.871216	262.482269
895.828430	244.647629
895.785767	271.292969
895.742981	284.589600
895.700195	262.313965
895.657410	275.607788
895.614624	284.452728
895.571838	235.524658
895.529114	257.702637
895.486267	302.085693
895.443481	306.478973
895.400757	337.516937
895.357910	261.977722
895.315125	297.452423
895.272339	328.476868
895.229553	230.784576
895.186768	301.746826
895.143921	292.824982
895.101135	328.266266
895.058350	310.472382
895.015442	390.245544
894.972656	305.938934
894.929871	332.489014
894.887024	305.840851
894.844238	301.360077
894.801392	292.449646
894.758545	332.275879
894.715698	292.355896
894.672913	274.593323
894.630066	301.118591
894.587219	274.505310
894.544373	336.436432
894.501526	331.956421
894.458679	300.925568
894.415894	287.603333
894.372986	318.524933
894.330078	296.357635
894.287292	336.112976
894.244446	358.168274
894.201538	313.899628
894.158691	327.110565
894.115845	353.576355
894.072876	313.748718
894.030029	335.789856
893.987183	362.241516
893.944275	388.684692
893.901428	331.212280
893.858521	362.067383
893.815552	370.838837
893.772766	401.677673
893.729858	313.346649
893.686951	388.311066
893.644043	383.836914
893.601135	326.429626
893.558167	374.892883
893.515320	304.276031
893.472412	383.590881
893.429504	405.571350
893.386536	431.952393
893.343689	312.894958
893.300720	326.063599
893.257812	396.500275
893.214844	347.983368
893.171936	369.948334
893.129028	413.923462
893.086060	422.662598
893.043091	391.780640
893.000183	369.711243
892.957275	374.052612
892.914307	356.393005
892.871338	431.122437
892.828430	422.256348
892.785461	444.177673
892.742493	417.723938
892.699524	413.260620
892.656555	470.338287
892.613525	386.758301
892.570618	470.187561
892.527649	461.325073
892.484619	430.501068
892.441711	474.353729
892.398682	505.017944
892.355652	478.592468
892.312744	456.565521
892.269775	487.217804
892.226746	425.698700
892.183777	544.104919
892.140686	465.047455
892.097717	482.519073
892.054749	535.071777
892.011719	473.594208
891.968750	434.058441
891.925720	447.140076
891.882751	460.217499
891.839722	490.820038
891.796692	407.490601
891.753662	433.710815
891.710632	398.599609
891.667603	402.915253
891.624573	486.048126
891.581482	437.811035
891.538513	477.137573
891.495422	442.047485
891.452454	472.608704
891.409363	520.661316
891.366272	516.203308
891.323242	511.746704
891.280273	586.009155
891.237122	546.562744
891.194092	489.641785
891.151062	480.821136
891.107971	572.522522
891.064880	554.951965
891.021851	484.959076
890.978760	615.930420
890.935730	545.950134
890.892639	541.495728
890.849548	489.014587
890.806458	467.108734
890.763367	519.411499
890.720276	536.784729
890.677185	623.966797
890.634155	506.073822
890.591003	553.974792
890.547913	545.163452
890.504761	553.797363
890.461731	540.628906
890.418579	584.134399
890.375488	496.870575
890.332336	505.506592
890.289246	527.211182
890.246155	557.621704
890.203003	535.753784
890.159912	566.153076
890.116760	496.393188
890.073669	583.386230
890.030457	548.469360
889.987366	522.268066
889.944214	609.215149
889.901062	600.415894
889.857910	552.468140
889.814758	665.465271
889.771606	613.173645
889.728516	573.942993
889.685364	499.945984
889.642212	630.265686
889.598999	621.472839
889.555908	656.135437
889.512695	629.962891
889.469543	612.486511
889.426392	542.897522
889.383240	616.632812
889.340027	599.166870
889.296875	586.047607
889.253723	577.272949
889.210449	568.501099
889.167297	520.680908
889.124146	550.965759
889.080933	520.514160
889.037781	602.832336
888.994507	585.390869
888.951294	554.948364
888.908081	576.533691
888.864868	524.431580
888.821716	637.017334
888.778503	563.258423
888.735291	571.832336
888.692078	580.403503
888.648804	580.310547
888.605652	593.207581
888.562378	593.112549
888.519226	584.360352
888.475952	631.873718
888.432739	623.118103
888.389465	635.997864
888.346252	540.727844
888.303040	679.045410
888.259766	549.203552
888.216492	536.144348
888.173279	600.904297
888.130066	600.808044
888.086731	579.103516
888.043457	566.047852
888.000244	604.839722
887.956970	570.186157
887.913696	660.791748
887.870483	548.412476
887.827209	526.737061
887.783936	552.553650
887.740601	569.729736
887.697327	543.745850
887.654053	578.176758
887.610779	569.456055
887.567505	586.618347
887.524231	638.276550
887.480957	564.870544
887.437622	525.978394
887.394348	637.969971
887.351074	612.008301
887.307739	555.890320
887.264404	633.354980
887.221130	641.869263
887.177734	658.995117
887.134460	658.889587
887.091125	641.560974
887.047852	697.424377
887.004517	714.530273
886.961182	671.378784
886.917908	636.847107
886.874573	722.791748
886.831238	597.928345
886.787842	713.958374
886.744568	657.940613
886.701172	644.936523
886.657837	674.925476
886.614502	692.010193
886.571167	704.791931
886.527832	674.601257
886.484436	605.755127
886.441101	635.726257
886.397766	708.635376
886.354370	691.345581
886.310974	686.941528
886.267639	712.587708
886.224304	652.385437
886.180908	678.028931
886.137451	750.861145
886.094177	626.332458
886.050781	759.199280
886.007385	699.037659
885.963989	746.092468
885.920593	741.685852
885.877197	775.859192
885.833862	805.735779
885.790405	784.181030
885.747009	775.486572
885.703613	749.659790
885.660217	865.183044
885.616821	839.350098
885.573364	826.370605
885.529968	856.205444
885.486511	838.947021
885.443115	855.931274
885.399719	924.257812
885.356323	902.718384
885.312805	868.353027
885.269409	863.937073
885.225952	949.323364
885.182556	838.007202
885.139099	957.569153
885.095642	824.916321
885.052185	841.878235
885.008728	982.746155
884.965332	982.588806
884.921875	978.160034
884.878418	871.234497
884.835022	879.635132
884.791504	823.992249
884.748108	858.009949
884.704590	973.109253
884.661072	926.012695
884.617615	849.064636
884.574219	874.524536
884.530762	844.527466
884.487244	989.388916
884.443726	967.910889
884.400269	997.598633
884.356812	1018.751709
884.313232	988.755493
884.269836	1014.164307
884.226257	933.052246
884.182739	1026.619141
884.139343	983.863281
884.095825	958.154968
884.052307	958.001587
884.008789	1047.247314
883.965332	970.464111
883.921753	995.843201
883.878235	999.938782
883.834717	1046.576904
883.791199	906.037354
883.747681	914.398315
883.704163	1058.831299
883.660645	965.125427
883.617126	994.727722
883.573547	939.314636
883.530029	973.161194
883.486511	1049.486206
883.442932	926.118835
883.399414	921.723022
883.355896	947.056824
883.312317	963.890015
883.268738	1082.610596
883.225220	976.315979
883.181641	1052.554810
883.138062	1082.090698
883.094482	1077.674683
883.050964	1119.923584
883.007385	1208.814819
882.963745	1132.287354
882.920227	1106.665405
882.876648	1157.361328
882.833069	1131.743652
882.789429	1156.990845
882.745911	1165.280396
882.702332	1249.827881
882.658691	1224.211670
882.615112	1147.779419
882.571533	1164.534302
882.527954	1151.645996
882.484314	1138.761597
882.440735	1155.509888
882.397156	1197.644531
882.353516	1074.745605
882.309875	1167.646851
882.266296	1006.722717
882.222656	1070.000244
882.179016	1023.314697
882.135437	1031.606689
882.091797	1061.032104
882.048218	925.612854
882.004517	971.949219
881.960876	1128.125610
881.917236	1094.148926
881.873657	1085.526123
881.829956	1013.558594
881.786316	996.506409
881.742737	1068.117676
881.699036	1118.600220
881.655396	1055.114380
881.611694	1071.824585
881.568054	1016.804565
881.524414	1058.826172
881.480774	1003.825806
881.437073	1066.921265
881.393372	1125.780151
881.349731	1087.658447
881.306091	1100.129517
881.262390	1062.023926
881.218689	1007.075745
881.174988	1053.257935
881.131348	1048.876953
881.087646	972.898743
881.044006	989.587036
881.000244	934.694275
880.956604	909.286682
880.912903	854.424316
880.869141	980.536926
880.825500	921.473022
880.781799	879.255859
880.738098	895.940247
880.694397	916.824951
880.650574	933.497986
880.606934	891.305786
880.563232	950.013550
880.519470	975.079041
880.475769	974.922913
880.432007	894.936829
880.388306	928.400818
880.344604	919.851746
880.300842	940.702332
880.257080	932.153931
880.213379	848.040344
880.169617	965.435913
880.125854	906.525146
880.082092	935.753418
880.038391	918.821533
879.994629	897.700134
879.950867	830.449402
879.907104	817.735962
879.863342	905.654785
879.819580	880.356812
879.775818	876.024353
879.732056	871.693298
879.688293	750.039062
879.644531	825.329834
879.600708	808.442444
879.556946	825.065613
879.513123	791.433716
879.469299	778.746582
879.425598	715.829834
879.381775	786.868225
879.338013	682.122314
879.294189	782.432251
879.250427	778.123535
879.206604	757.085022
879.162781	715.142639
879.119019	777.749939
879.075134	727.456055
879.031372	739.879944
878.987549	677.069824
878.943726	727.106750
878.899963	806.374390
878.856140	739.406311
878.812317	726.757629
878.768433	755.874023
878.724609	701.472412
878.680786	705.534851
878.636963	793.077942
878.593079	726.176147
878.549255	726.059937
878.505432	646.673950
878.461609	717.484619
878.417725	709.028259
878.373840	633.853210
878.330017	667.107117
878.286194	587.794067
878.242310	583.531860
878.198425	662.619385
878.154602	641.679565
878.110718	599.916016
878.066895	616.481628
878.022949	570.570740
877.979065	603.792053
877.935181	557.897827
877.891296	611.924255
877.847473	545.232971
877.803589	499.370117
877.759705	582.505188
877.715759	553.291382
877.671936	532.405701
877.627991	578.066772
877.584106	565.499939
877.540222	536.307495
877.496277	519.594604
877.452393	540.291870
877.408447	552.671692
877.364563	486.107025
877.320679	552.494751
877.276672	506.718567
877.232788	527.401306
877.188904	435.970642
877.144958	531.383911
877.101013	460.735718
877.057068	485.562592
877.013184	431.542114
876.969238	472.960815
876.925354	443.848297
876.881348	389.860382
876.837402	402.238342
876.793457	381.443329
876.749512	385.527740
876.705566	377.176422
876.661560	422.701508
876.617676	439.207733
876.573730	393.566559
876.529724	372.792847
876.485779	422.430908
876.441833	376.814331
876.397888	442.996460
876.353821	401.530640
876.309875	471.826447
876.265869	405.540253
876.221924	405.475342
876.177917	405.410431
876.133972	438.434967
876.089966	376.332031
876.046021	396.946045
876.002014	405.150909
875.958008	376.151337
875.913940	392.622589
875.869995	413.220795
875.825989	375.970703
875.781982	388.303192
875.737976	346.938782
875.693970	392.308441
875.649902	367.472229
875.605896	379.798126
875.561890	396.247650
875.517883	408.564972
875.473877	391.994537
875.429810	371.303802
875.385864	420.743591
875.341736	391.806305
875.297791	391.743591
875.253723	424.664520
875.209656	387.495880
875.165588	449.258392
875.121521	486.275269
875.077454	453.234894
875.033447	486.119598
874.989380	461.327789
874.945374	485.963959
874.901306	444.709351
874.857239	456.989227
874.813110	465.148804
874.769104	460.958618
874.725037	448.539703
874.680969	460.811066
874.636841	481.305908
874.592773	522.359558
874.548706	472.927002
874.504639	481.074799
874.460571	550.886353
874.416443	554.908569
874.372437	456.185150
874.328308	509.530640
874.284180	480.689850
874.240051	492.936310
874.196045	427.143066
874.151917	492.778473
874.107788	492.699585
874.063660	533.672424
874.019531	504.855408
873.975464	537.605469
873.931335	500.590576
873.887207	504.612976
873.843079	479.920868
873.798950	574.172363
873.754822	537.175232
873.710754	553.488892
873.666565	553.400330
873.622437	504.128448
873.578308	512.243652
873.534180	540.842651
873.489990	569.432556
873.445862	483.325775
873.401672	524.201660
873.357605	536.401733
873.313416	503.563751
873.269287	593.537048
873.225098	605.720093
873.180969	519.690125
873.136780	560.520874
873.092590	519.523743
873.048462	597.152161
873.004272	556.162231
872.960083	568.339539
872.915894	523.279236
872.871765	564.070068
872.827576	572.153381
872.783386	584.320251
872.739197	571.970215
872.695007	637.236206
872.650818	592.208008
872.606567	592.113220
872.562439	547.106689
872.518188	583.759155
872.474060	595.910461
872.429810	624.381531
872.385559	571.238037
872.341370	636.420471
872.297241	632.239563
872.252930	652.529907
872.208740	644.270142
872.164551	656.398010
872.120361	599.223938
872.076050	652.112122
872.031860	652.007690
871.987610	774.135193
871.943359	647.725159
871.899109	623.182922
871.854919	635.300476
871.810608	684.060181
871.766418	635.097046
871.722168	626.854370
871.677917	614.544495
871.633667	667.345459
871.589417	634.690369
871.545166	589.842102
871.500916	658.890503
871.456665	634.385559
871.412354	601.756592
871.368103	577.268616
871.323853	597.499268
871.279602	654.299194
871.235229	589.181335
871.190979	617.525635
871.146790	564.620544
871.102417	552.346008
871.058105	584.743347
871.013916	645.550720
870.969604	657.625610
870.925293	641.285217
870.880981	620.891968
870.836731	588.332764
870.792419	604.465820
870.748047	543.526550
870.703796	515.050842
870.659485	555.517090
870.615173	563.536560
870.570862	514.803467
870.526550	502.562286
870.482178	518.690918
870.437866	490.246460
870.393555	441.556274
870.349243	457.686859
870.304932	469.762604
870.260559	498.030579
870.216248	416.983215
870.171875	445.250580
870.127563	416.849670
870.083252	400.597198
870.038879	392.441467
869.994507	404.514038
869.950195	420.627228
869.905823	339.682983
869.861511	392.190155
869.817078	343.616730
869.772766	343.561707
869.728394	404.125519
869.684021	395.979584
869.639648	355.516571
869.595276	323.145111
869.550903	363.480042
869.506531	323.041626
869.462158	347.214142
869.417786	258.350525
869.373413	262.345245
869.328979	330.905609
869.284607	290.504730
869.240234	258.185089
869.195862	242.009750
869.151428	274.233795
869.107056	294.350891
869.062622	209.641022
869.018250	217.669281
868.973877	189.422546
868.929443	241.777283
868.885010	201.448807
868.840637	265.869843
868.796143	213.467346
868.751770	193.297943
868.707336	185.214203
868.662903	165.055786
868.618469	197.230194
868.574036	197.198608
868.529663	209.238480
868.485229	181.042755
868.440735	225.261566
868.396301	185.006653
868.351868	176.934540
868.307434	176.906204
868.263000	184.917770
868.218506	144.695084
868.174072	180.839874
868.129578	168.756851
868.085144	152.660309
868.040710	188.786469
867.996277	116.466606
867.951721	156.602417
867.907288	132.488510
867.862793	132.467300
867.818359	172.581253
867.773865	124.399117
867.729370	160.489273
867.684937	160.463562
867.640442	132.361237
867.595947	108.278214
867.551514	112.270531
867.506958	108.243530
867.462463	112.234566
867.417969	132.255264
867.373535	124.219894
867.328979	104.167740
867.284485	116.168480
867.239929	144.186050
867.195435	108.122215
867.150940	80.077705
867.106445	108.087578
867.061890	140.091080
867.017395	120.058838
866.972839	124.040924
866.928345	108.018341
866.883789	132.001266
866.839294	119.981926
866.794739	95.970169
866.750183	147.930313
866.705688	107.931847
866.661133	115.908234
866.616638	103.901077
866.572021	107.879990
866.527527	103.867790
866.482910	95.862602
866.438416	139.777237
866.393860	99.824883
866.349304	135.740097
866.304749	107.776337
866.260193	111.750145
866.215637	111.732246
866.171021	83.785759
866.126465	87.761490
866.081909	123.644112
866.037292	79.757614
865.992676	107.655525
865.948181	91.691872
865.903564	131.536819
865.859009	99.633141
865.814392	99.617180
865.769836	103.585266
865.725159	119.502319
865.680603	143.379807
865.635986	99.553352
865.591431	127.407883
865.546753	99.521461
865.502197	135.327499
865.457581	95.509987
865.412964	87.536797
865.368347	119.349228
865.323792	95.464088
865.279114	79.540657
865.234497	115.315475
865.189880	163.006104
865.145264	123.228767
865.100647	139.106964
865.055969	115.241592
865.011353	147.008820
864.966675	131.094955
864.922058	162.849457
864.877441	111.196442
864.832825	99.266632
864.788147	123.070900
864.743469	103.204216
864.698853	115.093948
864.654175	126.979866
864.609497	111.089584
864.564880	122.972328
864.520203	115.020195
864.475586	162.588699
864.430908	107.053452
864.386169	126.857834
864.341492	174.401566
864.296875	150.595398
864.252136	87.172844
864.207520	150.547134
864.162781	170.328674
864.118103	170.301376
864.073425	146.514908
864.028687	146.491440
863.984009	138.550766
863.939331	150.402451
863.894653	197.866241
863.849976	146.397552
863.805237	126.593811
863.760559	166.127747
863.715820	177.965485
863.671143	154.212036
863.626404	170.001419
863.581665	181.832825
863.536987	173.899185
863.492249	122.500244
863.447571	189.647400
863.402832	130.361694
863.358093	154.039124
863.313354	134.268997
863.268616	146.092834
863.223877	189.495468
863.179138	193.412292
863.134338	138.129501
863.089600	138.107361
863.044861	185.428726
863.000183	118.339790
862.955444	177.481232
862.910645	169.565994
862.865906	169.538818
862.821106	173.453781
862.776367	137.952484
862.731628	106.403427
862.686890	157.609436
862.642090	98.490112
862.597290	165.436859
862.552490	82.705177
862.507751	137.819870
862.463013	90.552818
862.418213	137.775681
862.373352	106.267059
862.328613	94.444473
862.283813	86.560219
862.239014	129.819519
862.194275	106.198944
862.149475	145.508560
