#Wave		#Intensity
899.963257	275.547516
899.920715	316.202087
899.878235	261.953949
899.835815	266.427643
899.793274	266.384888
899.750793	343.084778
899.708252	279.840027
899.665771	297.846436
899.623230	252.677628
899.580688	275.193970
899.538208	252.596542
899.495667	302.165222
899.453186	261.533875
899.410645	306.576721
899.368103	279.480988
899.325623	306.478363
899.283020	292.910248
899.240540	319.896759
899.197998	247.767593
899.155396	288.265137
899.112854	301.729126
899.070312	270.161835
899.027771	292.628357
898.985229	265.573883
898.942688	229.527039
898.900085	314.986572
898.857544	296.939697
898.814941	256.406769
898.772400	292.346771
898.729797	314.784454
898.687256	211.321381
898.644714	220.278427
898.602112	251.706390
898.559570	296.606354
898.516907	256.118958
898.474304	256.077850
898.431763	332.398621
898.389221	278.451447
898.346558	305.349396
898.304016	327.748962
898.261353	228.938568
898.218750	300.714172
898.176147	296.178375
898.133606	349.972839
898.090942	309.541718
898.048340	300.521271
898.005676	304.957733
897.963074	309.392761
897.920471	363.141937
897.877808	300.328491
897.835205	291.316711
897.792542	313.675385
897.749939	371.869720
897.707275	318.054382
897.664673	331.440155
897.622009	331.386993
897.579346	308.946411
897.536743	313.373627
897.494080	313.323364
897.451477	299.847107
897.408752	322.172089
897.366089	263.959778
897.323425	268.390625
897.280823	304.127258
897.238098	308.550201
897.195435	299.558685
897.152710	312.921539
897.110046	312.871368
897.067383	326.227814
897.024719	281.493927
896.982056	357.395264
896.939331	335.004333
896.896667	343.882629
896.854004	272.382812
896.811279	343.772339
896.768555	361.572632
896.725830	339.198944
896.683167	321.294830
896.640442	312.319885
896.597778	325.652771
896.555054	370.203369
896.512268	347.846191
896.469604	392.378906
896.426880	361.109039
896.384094	450.199554
896.341431	356.536530
896.298706	347.567383
896.255920	365.332764
896.213257	374.183289
896.170532	432.023315
896.127747	387.422699
896.085022	333.931549
896.042236	387.298462
895.999512	320.471497
895.956787	289.268158
895.913940	324.818298
895.871216	395.947845
895.828430	382.539948
895.785767	378.031189
895.742981	395.757416
895.700195	391.247955
895.657410	351.177643
895.614624	448.901978
895.571838	408.835236
895.529114	404.326569
895.486267	475.340729
895.443481	444.172424
895.400757	444.101227
895.357910	417.388214
895.315125	359.606659
895.272339	368.426758
895.229553	417.187500
895.186768	386.058441
895.143921	465.857910
895.101135	532.323669
895.058350	470.143890
895.015442	487.806946
894.972656	390.182983
894.929871	474.350983
894.887024	403.355347
894.844238	447.608337
894.801392	447.536560
894.758545	456.325531
894.715698	504.978363
894.672913	438.463531
894.630066	398.539307
894.587219	429.467957
894.544373	495.801056
894.501526	438.182465
894.458679	460.239105
894.415894	486.713318
894.372986	429.123871
894.330078	468.864319
894.287292	437.831390
894.244446	495.244995
894.201538	442.112152
894.158691	481.825012
894.115845	490.587189
894.072876	561.212463
894.030029	481.593353
893.987183	503.604065
893.944275	485.855865
893.901428	556.436584
893.858521	490.115601
893.815552	534.184509
893.772766	564.997192
893.729858	600.213257
893.686951	507.451935
893.644043	569.137451
893.601135	621.980774
893.558167	635.112610
893.515320	551.224670
893.472412	529.090881
893.429504	581.906677
893.386536	537.736694
893.343689	528.836548
893.300720	568.408142
893.257812	519.855957
893.214844	532.987183
893.171936	546.114197
893.129028	497.588837
893.086060	541.536438
893.043091	594.273987
893.000183	528.158936
892.957275	589.682922
892.914307	593.988342
892.871338	598.292358
892.828430	677.369568
892.785461	659.669800
892.742493	641.975708
892.699524	602.305359
892.656555	619.791565
892.613525	610.902283
892.570618	663.535706
892.527649	619.493652
892.484619	689.680298
892.441711	619.295166
892.398682	667.501953
892.355652	698.130310
892.312744	733.138855
892.269775	724.242676
892.226746	754.847168
892.183777	680.131165
892.140686	728.281860
892.097717	715.005554
892.054749	719.276794
892.011719	697.235901
891.968750	657.664307
891.925720	640.024048
891.882751	705.666870
891.839722	731.847717
891.796692	740.493713
891.753662	639.613953
891.710632	600.089539
891.667603	700.722168
891.624573	678.715881
891.581482	582.288696
891.538513	656.611328
891.495422	700.273254
891.452454	682.656982
891.409363	678.172302
891.366272	791.803406
891.323242	791.676514
891.280273	830.908508
891.237122	787.050354
891.194092	747.578064
891.151062	865.478027
891.107971	795.412964
891.064880	786.546143
891.021851	786.420105
890.978760	847.450317
890.935730	759.962524
890.892639	855.912659
890.849548	794.648682
890.806458	772.693848
890.763367	851.136536
890.720276	855.364258
890.677185	798.502991
890.634155	842.002136
890.591003	780.799133
890.547913	723.977051
890.504761	793.630859
890.461731	741.184753
890.418579	762.862122
890.375488	736.588806
890.332336	771.333374
890.289246	836.566528
890.246155	710.096375
890.203003	831.942810
890.159912	783.904297
890.116760	827.322021
890.073669	840.250366
890.030457	827.056946
889.987366	800.811096
889.944214	852.901245
889.901062	848.413757
889.857910	774.325439
889.814758	830.744202
889.771606	895.842407
889.728516	813.085876
889.685364	856.429199
889.642212	856.292053
889.598999	856.154846
889.555908	903.815674
889.512695	834.157776
889.469543	860.087402
889.426392	773.086060
889.383240	881.524353
889.340027	824.939880
889.296875	811.784485
889.253723	842.037231
889.210449	872.280273
889.167297	837.428528
889.124146	885.015808
889.080933	824.147400
889.037781	837.026184
888.994507	780.521179
888.951294	784.731689
888.908081	875.637634
888.864868	775.812012
888.821716	884.024048
888.778503	784.229065
888.735291	714.790466
888.692078	870.605286
888.648804	866.135132
888.605652	831.356567
888.562378	930.797058
888.519226	852.733276
888.475952	861.252502
888.432739	861.114563
888.389465	817.711487
888.346252	817.580566
888.303040	934.228088
888.259766	877.860840
888.216492	981.490112
888.173279	842.995239
888.130066	842.860229
888.086731	872.976929
888.043457	920.367859
888.000244	928.861023
887.956970	863.918396
887.913696	898.331238
887.870483	937.051270
887.827209	824.645752
887.783936	889.266052
887.740601	893.439758
887.697327	893.296692
887.654053	850.006104
887.610779	888.696533
887.567505	892.867615
887.524231	905.662659
887.480957	892.581665
887.437622	982.976013
887.394348	948.333740
887.351074	896.462830
887.307739	883.391602
887.264404	973.729431
887.221130	887.416565
887.177734	934.653198
887.134460	1068.004028
887.091125	942.965393
887.047852	1050.441650
887.004517	1028.751465
886.961182	972.638489
886.917908	1118.785400
886.874573	1002.443298
886.831238	1053.902466
886.787842	1058.034668
886.744568	1135.270020
886.701172	1139.387817
886.657837	1156.401001
886.614502	1091.742798
886.571167	1031.402832
886.527832	1048.424927
886.484436	1082.626099
886.441101	1116.816406
886.397766	1004.973755
886.354370	1129.340942
886.310974	1116.279907
886.267639	1077.466919
886.224304	1128.798584
886.180908	1115.743774
886.137451	1064.077515
886.094177	1149.706177
886.050781	1209.571655
886.007385	1192.223755
885.963989	1243.487427
885.920593	1174.693115
885.877197	1217.370239
885.833862	1332.892700
885.790405	1285.542725
885.747009	1383.879395
885.703613	1259.428467
885.660217	1370.586914
885.616821	1383.214722
885.573364	1455.782349
885.529968	1425.582031
885.486511	1425.353882
885.443115	1416.566284
885.399719	1544.708618
885.356323	1488.843628
885.312805	1355.999512
885.269409	1389.997803
885.225952	1372.670288
885.182556	1398.103760
885.139099	1346.581665
885.095642	1320.720947
885.052185	1367.517944
885.008728	1418.572632
884.965332	1371.352173
884.921875	1371.132568
884.878418	1413.620728
884.835022	1327.992920
884.791504	1383.282349
884.748108	1506.853394
884.704590	1468.199829
884.661072	1293.003906
884.617615	1365.330078
884.574219	1416.303101
884.530762	1480.055786
884.487244	1548.052490
884.443726	1509.429321
884.400269	1560.346558
884.356812	1525.996338
884.313232	1534.275757
884.269836	1597.947998
884.226257	1508.221436
884.182739	1542.058594
884.139343	1665.327026
884.095825	1486.204834
884.052307	1426.357910
884.008789	1690.069946
883.965332	1570.619507
883.921753	1519.299194
883.878235	1476.505371
883.834717	1578.374023
883.791199	1544.091797
883.747681	1607.639893
883.704163	1543.597412
883.660645	1568.860229
883.617126	1521.848389
883.573547	1572.608276
883.530029	1474.615356
883.486511	1495.624023
883.442932	1631.328613
883.399414	1622.572266
883.355896	1520.387207
883.312317	1609.314209
883.268738	1634.529785
883.225220	1685.206299
883.181641	1727.378296
883.138062	1616.770874
883.094482	1760.767700
883.050964	1802.907227
883.007385	1802.618530
882.963745	1696.310547
882.920227	1751.160278
882.876648	1784.795288
882.833069	1750.599609
882.789429	1796.938110
882.745911	1809.362549
882.702332	1724.338867
882.658691	1774.895142
882.615112	1668.727295
882.571533	1748.918823
882.527954	1731.702881
882.484314	1744.125610
882.440735	1697.287476
882.397156	1730.871338
882.353516	1777.138428
882.309875	1544.170654
882.266296	1620.062134
882.222656	1577.510254
882.179016	1509.600586
882.135437	1555.865845
882.091797	1492.208496
882.048218	1559.594238
882.004517	1563.570435
881.960876	1495.717163
881.917236	1465.906128
881.873657	1482.566772
881.829956	1486.552612
881.786316	1511.649536
881.742737	1498.742188
881.699036	1426.742920
881.655396	1540.466919
881.611694	1472.703857
881.568054	1518.878174
881.524414	1518.635132
881.480774	1573.222778
881.437073	1551.885498
881.393372	1547.420776
881.349731	1513.447144
881.306091	1525.850098
881.262390	1567.749634
881.218689	1432.660034
881.174988	1369.235229
881.131348	1588.058594
881.087646	1457.242310
881.044006	1423.320923
881.000244	1410.462036
880.956604	1384.978271
880.912903	1477.354370
880.869141	1291.952026
880.825500	1350.652222
880.781799	1287.331543
880.738098	1287.125488
880.694397	1286.919434
880.650574	1379.222168
880.606934	1332.754395
880.563232	1311.523071
880.519470	1193.631226
880.475769	1235.462646
880.432007	1264.676025
880.388306	1260.272583
880.344604	1323.074463
880.300842	1394.255249
880.257080	1326.849731
880.213379	1251.069458
880.169617	1263.461792
880.125854	1296.834595
880.082092	1158.152222
880.038391	1292.223877
879.994629	1271.042725
879.950867	1300.198608
879.907104	1258.055298
879.863342	1253.661011
879.819580	1228.307373
879.775818	1274.217285
879.732056	1148.288330
879.688293	1131.343872
879.644531	1181.436646
879.600708	1126.792847
879.556946	1160.117676
879.513123	1034.307617
879.469299	1126.251831
879.425598	1071.651733
879.381775	991.956238
879.338013	1054.569458
879.294189	1071.137207
879.250427	1091.883057
879.206604	1062.428711
879.162781	1045.530151
879.119019	949.189392
879.075134	1045.195435
879.031372	1019.947449
878.987549	1044.860840
878.943726	1132.447876
878.899963	981.854797
878.856140	1144.617676
878.812317	931.419250
878.768433	1044.024902
878.724609	972.875427
878.680786	1010.292542
878.636963	993.434448
878.593079	968.234863
878.549255	976.425415
878.505432	963.752808
878.461609	938.570007
878.417725	884.199951
878.373840	879.888367
878.330017	838.053284
878.286194	837.919189
878.242310	846.121216
878.198425	804.311584
878.154602	820.849854
878.110718	791.555847
878.066895	878.902893
878.022949	749.654968
877.979065	828.652527
877.935181	757.741821
877.891296	770.108765
877.847473	720.040466
877.803589	769.862244
877.759705	711.488464
877.715759	757.135559
877.671936	690.463623
877.627991	686.194336
877.584106	798.352905
877.540222	673.502441
877.496277	769.000000
877.452393	669.130737
877.408447	743.821289
877.364563	776.940308
877.320679	652.193054
877.276672	660.395508
877.232788	660.289795
877.188904	610.358887
877.144958	647.624146
877.101013	618.465027
877.057068	684.767761
877.013184	601.669312
876.969238	622.316895
876.925354	601.476685
876.881348	597.232971
876.837402	576.403381
876.793457	621.918518
876.749512	497.455139
876.705566	563.692261
876.661560	567.746155
876.617676	551.081421
876.573730	542.707581
876.529724	642.032104
876.485779	563.241211
876.441833	546.587830
876.397888	542.360168
876.353821	558.831299
876.309875	546.325378
876.265869	554.514221
876.221924	554.425476
876.177917	637.073547
876.133972	483.932922
876.089966	632.734070
876.046021	562.340271
876.002014	545.713440
875.958008	570.427307
875.913940	611.664673
875.869995	595.037903
875.825989	582.548035
875.781982	632.025391
875.737976	574.101074
875.693970	607.045654
875.649902	631.721924
875.605896	648.133728
875.561890	648.029968
875.517883	639.672424
875.473877	532.287292
875.429810	589.960449
875.385864	602.240845
875.341736	565.025940
875.297791	614.418884
875.253723	655.550110
875.209656	572.999207
875.165588	610.002197
875.121521	589.299683
875.077454	638.649170
875.033447	737.418701
874.989380	659.039673
874.945374	654.815857
874.901306	605.298889
874.857239	662.840271
874.813110	753.294067
874.769104	662.628052
874.725037	674.867065
874.680969	707.674133
874.636841	748.698120
874.592773	744.465149
874.548706	694.997070
874.504639	707.221069
874.460571	719.441101
874.416443	694.663330
874.372437	735.649902
874.328308	731.423035
874.284180	727.197449
874.240051	690.110840
874.196045	628.393188
874.151917	755.593689
874.107788	677.461914
874.063660	722.510376
874.019531	747.021790
873.975464	746.902222
873.931335	734.473022
873.887207	705.637634
873.843079	779.358643
873.798950	668.500671
873.754822	680.695374
873.710754	729.785400
873.666565	795.256714
873.622437	770.537781
873.578308	762.218506
873.534180	700.637085
873.489990	774.264404
873.445862	802.812317
873.401672	855.923035
873.357605	929.490051
873.313416	863.836975
873.269287	855.511963
873.225098	798.077148
873.180969	830.685791
873.136780	777.364685
873.092590	809.966125
873.048462	744.395142
873.004272	887.405945
872.960083	879.086304
872.915894	842.152527
872.871765	874.717407
872.827576	825.535645
872.783386	911.212708
872.739197	890.639343
872.695007	890.496704
872.650818	853.596436
872.606567	833.042053
872.562439	857.406006
872.518188	975.653442
872.474060	893.865662
872.429810	959.017334
872.385559	873.178101
872.341370	938.312195
872.297241	958.556763
872.252930	1015.499695
872.208740	978.638184
872.164551	909.172363
872.120361	1006.859253
872.076050	1023.000854
872.031860	1079.887695
871.987610	1006.375732
871.943359	998.067078
871.899109	989.761108
871.854919	973.312866
871.810608	956.869873
871.766418	875.294006
871.722168	923.999634
871.677917	988.968994
871.633667	903.357849
871.589417	952.035583
871.545166	915.272217
871.500916	955.797974
871.456665	833.647705
871.412354	886.371216
871.368103	894.359802
871.323853	910.475098
871.279602	894.073425
871.235229	893.930298
871.190979	840.972412
871.146790	812.403625
871.102417	832.580383
871.058105	913.661438
871.013916	848.554077
870.969604	795.645752
870.925293	832.047302
870.880981	840.030273
870.836731	746.574036
870.792419	831.647644
870.748047	782.840454
870.703796	746.215454
870.659485	802.864136
870.615173	737.868042
870.570862	664.785583
870.526550	693.049622
870.482178	632.154541
870.437866	615.846802
870.393555	599.544312
870.349243	603.498596
870.304932	615.551025
870.260559	583.060181
870.216248	603.208740
870.171875	550.491638
870.127563	562.544739
870.083252	554.361755
870.038879	416.716187
869.994507	513.732849
869.950195	469.161133
869.905823	477.173706
869.861511	464.967682
869.817078	464.893219
869.772766	412.274048
869.728394	412.208038
869.684021	420.223236
869.639648	412.076019
869.595276	395.852783
869.550903	375.596039
869.506531	367.459839
869.462158	444.111115
869.417786	379.452332
869.373413	411.680237
869.328979	367.224518
869.284607	363.130920
869.240234	266.253357
869.195862	290.411682
869.151428	334.726532
869.107056	266.125458
869.062622	282.209076
869.018250	278.132965
868.973877	249.876556
868.929443	274.014252
868.885010	229.651642
868.840637	241.699844
868.796143	265.827271
868.751770	237.595398
868.707336	213.398972
868.662903	201.287537
868.618469	221.380829
868.574036	209.271988
868.529663	241.429016
868.485229	245.413513
868.440735	197.103867
868.396301	261.422455
868.351868	172.913300
868.307434	265.359314
868.263000	156.778107
868.218506	245.177765
868.174072	196.914536
868.129578	164.738831
868.085144	172.747208
868.040710	196.819931
867.996277	160.643600
867.951721	160.617874
867.907288	168.621750
867.862793	172.608902
867.818359	228.770493
867.773865	136.437744
867.729370	148.452576
867.684937	168.486740
867.640442	152.415970
867.595947	128.329727
867.551514	136.328506
867.506958	132.297653
867.462463	128.268082
867.417969	124.239799
867.373535	168.297928
867.328979	112.180641
867.284485	116.168480
867.239929	124.160210
867.195435	144.162949
867.150940	152.147629
867.106445	172.139481
867.061890	152.098892
867.017395	136.066681
866.972839	148.048843
866.928345	132.022415
866.883789	172.001648
866.839294	131.980118
866.794739	103.967682
866.750183	135.935959
866.705688	119.924278
866.661133	175.860764
866.616638	127.878250
866.572021	151.831100
866.527527	147.811859
866.482910	191.725204
866.438416	159.745407
866.393860	131.768845
866.349304	135.740097
866.304749	135.718353
866.260193	87.803688
866.215637	143.655746
866.171021	171.561310
866.126465	115.685608
866.081909	127.632629
866.037292	163.503113
865.992676	123.604492
865.948181	131.557907
865.903564	155.452606
865.859009	119.559769
865.814392	131.494675
865.769836	163.346008
865.725159	175.270065
865.680603	155.328125
865.635986	143.356827
865.591431	135.370865
865.546753	135.349182
865.502197	214.931915
865.457581	147.244568
865.412964	167.115692
865.368347	135.262466
865.323792	115.352440
865.279114	167.035385
865.234497	151.103043
865.189880	147.103073
865.145264	139.129257
865.100647	143.081451
865.055969	174.849304
865.011353	194.687347
864.966675	202.601303
864.922058	178.737213
864.877441	202.536377
864.832825	166.767944
864.788147	206.441513
864.743469	154.806320
864.698853	162.719025
864.654175	186.501678
864.609497	154.731918
864.564880	178.508224
864.520203	162.614761
864.475586	174.485443
864.430908	206.177017
864.386169	162.536606
864.341492	186.292587
864.296875	202.114883
864.252136	194.157684
864.207520	202.050110
864.162781	186.173203
864.118103	186.143372
864.073425	201.952988
864.028687	186.083710
863.984009	229.598419
863.939331	189.982040
863.894653	205.780899
863.849976	138.484177
863.805237	162.198318
863.760559	221.503662
863.715820	225.422958
863.671143	181.891129
863.626404	154.187332
863.581665	162.068390
863.536987	142.281143
863.492249	181.774551
863.447571	209.402328
863.402832	197.517715
863.358093	193.536331
863.313354	154.014435
863.268616	177.680481
863.223877	169.756363
863.179138	157.887589
863.134338	189.434738
863.089600	114.431808
863.044861	161.756973
863.000183	165.675705
862.955444	161.705124
862.910645	134.075439
862.865906	122.225662
862.821106	149.800995
862.776367	173.425980
862.731628	130.048630
862.686890	130.027786
862.642090	165.463394
862.597290	126.047134
862.552490	141.780304
862.507751	169.321548
862.463013	161.420242
