#Wave		#Intensity
899.963257	76.791931
899.920715	85.826279
899.878235	49.680923
899.835815	67.735840
899.793274	72.239967
899.750793	49.657009
899.708252	81.243881
899.665771	90.256493
899.623230	58.657307
899.580688	45.113766
899.538208	72.170441
899.495667	72.158859
899.453186	36.073639
899.410645	45.084812
899.368103	81.139641
899.325623	81.126625
899.283020	45.063114
899.240540	81.100586
899.197998	67.572983
899.155396	67.562141
899.112854	58.544456
899.070312	81.048553
899.027771	81.035545
898.985229	67.518784
898.942688	85.510071
898.900085	89.996162
898.857544	71.985374
898.814941	89.967285
898.772400	35.981140
898.729797	58.459972
898.687256	67.442993
898.644714	53.945736
898.602112	71.916107
898.559570	89.880714
898.516907	53.919777
898.474304	80.866692
898.431763	49.410606
898.389221	94.314201
898.346558	58.375618
898.304016	67.345673
898.261353	67.334869
898.218750	58.347527
898.176147	89.751030
898.133606	94.223457
898.090942	94.208344
898.048340	62.795490
898.005676	71.754761
897.963074	62.775345
897.920471	80.698212
897.877808	98.615326
897.835205	71.708733
897.792542	71.697227
897.749939	94.087517
897.707275	62.714951
897.664673	76.141655
897.622009	76.129440
897.579346	53.729809
897.536743	76.105019
897.494080	71.616768
897.451477	58.179291
897.408752	80.543022
897.366089	53.686733
897.323425	49.204945
897.280823	93.921646
897.238098	80.491356
897.195435	89.420502
897.152710	67.054619
897.110046	75.983047
897.067383	102.784103
897.024719	62.554203
896.982056	67.011612
896.939331	80.401039
896.896667	84.854156
896.854004	75.909958
896.811279	80.362366
896.768555	98.204918
896.725830	75.873444
896.683167	107.098274
896.640442	75.849113
896.597778	71.375954
896.555054	80.285072
896.512268	84.731758
896.469604	66.882767
896.426880	44.581364
896.384094	89.148430
896.341431	98.047546
896.298706	106.943810
896.255920	71.284439
896.213257	89.091263
896.170532	44.538486
896.127747	89.062691
896.085022	97.953255
896.042236	57.872185
895.999512	89.019859
895.956787	66.754189
895.913940	97.890442
895.871216	102.323601
895.828430	84.514641
895.785767	62.263958
895.742981	80.040825
895.700195	88.919991
895.657410	80.015160
895.614624	97.780632
895.571838	93.321091
895.529114	79.976685
895.486267	115.503349
895.443481	102.159660
895.400757	75.497208
895.357910	75.485107
895.315125	106.550117
895.272339	79.899780
895.229553	97.639626
895.186768	97.623978
895.143921	75.424614
895.101135	106.464737
895.058350	75.400436
895.015442	93.126778
894.972656	93.111855
894.929871	84.230553
894.887024	128.541809
894.844238	110.794144
894.801392	110.776382
894.758545	132.910339
894.715698	93.022331
894.672913	119.580963
894.630066	110.705368
894.587219	66.412575
894.544373	101.816284
894.501526	66.391281
894.458679	88.507523
894.415894	92.917999
894.372986	84.055191
894.330078	84.041718
894.287292	75.183167
894.244446	114.967590
894.201538	88.422432
894.158691	83.987846
894.115845	92.813789
894.072876	79.541931
894.030029	114.875481
893.987183	114.857071
893.944275	110.421783
893.901428	101.571762
893.858521	88.309113
893.815552	92.709709
893.772766	119.179092
893.729858	136.813324
893.686951	83.839890
893.644043	57.354939
893.601135	123.513916
893.558167	66.157562
893.515320	119.064529
893.472412	88.181816
893.429504	101.392838
893.386536	96.968910
893.343689	96.953369
893.300720	132.187943
893.257812	92.516731
893.214844	114.526169
893.171936	101.295380
893.129028	114.489464
893.086060	101.262909
893.043091	88.040596
893.000183	61.618542
892.957275	96.813614
892.914307	109.997841
892.871338	131.976257
892.828430	57.180546
892.785461	109.944969
892.742493	105.530258
892.699524	87.927788
892.656555	118.683495
892.613525	87.899612
892.570618	105.462631
892.527649	131.807159
892.484619	114.214569
892.441711	144.941422
892.398682	127.352348
892.355652	83.424377
892.312744	127.311539
892.269775	100.955040
892.226746	96.550217
892.183777	78.982979
892.140686	114.068245
892.097717	122.823036
892.054749	78.945015
892.011719	78.932365
891.968750	109.610718
891.925720	105.209435
891.882751	109.575600
891.839722	100.793396
891.796692	70.105911
891.753662	87.618347
891.710632	96.364738
891.667603	74.451736
891.624573	109.470299
891.581482	113.830872
891.538513	122.567451
891.495422	122.547813
891.452454	100.648148
891.409363	70.004883
891.366272	109.365112
891.323242	139.964905
891.280273	113.703270
891.237122	126.802559
891.194092	109.295036
891.151062	122.390831
891.107971	83.037613
891.064880	135.460724
891.021851	144.177017
890.978760	109.207520
890.935730	104.822418
890.892639	157.208435
890.849548	113.521240
890.806458	91.675545
890.763367	135.308884
890.720276	122.194901
890.677185	109.085106
890.634155	122.155746
890.591003	148.308228
890.547913	122.116615
890.504761	104.654617
890.461731	108.997765
890.418579	108.980301
890.375488	130.755417
890.332336	135.092285
890.289246	148.141998
890.246155	148.118256
890.203003	100.181595
890.159912	95.810524
890.116760	117.566811
890.073669	108.840721
890.030457	100.117424
889.987366	104.453621
889.944214	121.843033
889.901062	126.174355
889.857910	108.753578
889.814758	147.881165
889.771606	95.672485
889.728516	130.441589
889.685364	143.462769
889.642212	130.399796
889.598999	130.378922
889.555908	143.393829
889.512695	108.614296
889.469543	117.284645
889.426392	95.549957
889.383240	82.507202
889.340027	138.937241
889.296875	112.868431
889.253723	104.169556
889.210449	160.569000
889.167297	121.492218
889.124146	108.457825
889.080933	130.128540
889.037781	130.107697
888.994507	121.414398
888.951294	147.408157
888.908081	138.714874
888.864868	108.353638
888.821716	78.002121
888.778503	155.979263
888.735291	99.637459
888.692078	129.941086
888.648804	129.920273
888.605652	142.889404
888.562378	108.232216
888.519226	125.529266
888.475952	121.181259
888.432739	112.507431
888.389465	129.795471
888.346252	95.168106
888.303040	151.379562
888.259766	121.084251
888.216492	129.712341
888.173279	142.660736
888.130066	133.993164
888.086731	112.363365
888.043457	129.629272
888.000244	133.928802
887.956970	95.031021
887.913696	125.248108
887.870483	112.273422
887.827209	116.572960
887.783936	112.237465
887.740601	142.432434
887.697327	103.570633
887.654053	107.868797
887.610779	120.793709
887.567505	125.087730
887.524231	99.191628
887.480957	116.423698
887.437622	142.272842
887.394348	116.386414
887.351074	129.297531
887.307739	112.039909
887.264404	107.713432
887.221130	112.004028
887.177734	116.293251
887.134460	180.871643
887.091125	159.313797
887.047852	129.152664
887.004517	137.740784
886.961182	137.718719
886.917908	141.999695
886.874573	154.883942
886.831238	159.160782
886.787842	137.630524
886.744568	150.509293
886.701172	150.485184
886.657837	150.461090
886.614502	146.138794
886.571167	137.520370
886.527832	171.872940
886.484436	124.587929
886.441101	124.567978
886.397766	128.842789
886.354370	120.234016
886.310974	150.268463
886.267639	85.853943
886.224304	141.636322
886.180908	128.739670
886.137451	167.334778
886.094177	111.538658
886.050781	145.834885
886.007385	145.811539
885.963989	115.772972
885.920593	137.190445
885.877197	124.308929
885.833862	154.289825
885.790405	119.983986
885.747009	145.671509
885.703613	128.513107
885.660217	167.040283
885.616821	192.707932
885.573364	154.141663
885.529968	141.273895
885.486511	184.054703
885.443115	162.626953
885.399719	196.832672
885.356323	188.244598
885.312805	119.772835
885.269409	141.138245
885.225952	124.010712
885.182556	171.021866
885.139099	179.544220
885.095642	175.241287
885.052185	162.392761
885.008728	209.367661
884.965332	158.068634
884.921875	166.586212
884.878418	192.184082
884.835022	170.802948
884.791504	175.044983
884.748108	145.136017
884.704590	179.256958
884.661072	196.297623
884.617615	179.199570
884.574219	153.575043
884.530762	136.489288
884.487244	174.848907
884.443726	157.765213
884.400269	153.476715
884.356812	187.552612
884.313232	183.260712
884.269836	178.970169
884.226257	191.723068
884.182739	174.653046
884.139343	195.920822
884.095825	166.080200
884.052307	187.342529
884.008789	170.284119
883.965332	157.487595
883.921753	187.252563
883.878235	140.416946
883.834717	182.938232
883.791199	178.655258
883.747681	187.132675
883.704163	174.345718
883.660645	182.821106
883.617126	182.791840
883.573547	191.263168
883.530029	152.986038
883.486511	157.210480
883.442932	157.185303
883.399414	195.388290
883.355896	208.097687
883.312317	186.833313
883.268738	169.821274
883.225220	191.018341
883.181641	199.476105
883.138062	220.661636
883.094482	212.140686
883.050964	212.106735
883.007385	212.072769
882.963745	199.316498
882.920227	241.685562
882.876648	186.534424
882.833069	165.310867
882.789429	186.474701
882.745911	194.919617
882.702332	211.835236
882.658691	224.509399
882.615112	207.532074
882.571533	207.498840
882.527954	190.529663
882.484314	203.199097
882.440735	245.492950
882.397156	190.438171
882.353516	160.788712
882.309875	219.991440
882.266296	203.036514
882.222656	177.628510
882.179016	177.600067
882.135437	232.534286
882.091797	198.679306
882.048218	219.780212
882.004517	194.389847
881.960876	207.034286
881.917236	202.776642
881.873657	219.639526
881.829956	206.934875
881.786316	173.121872
881.742737	227.977676
881.699036	223.720047
881.655396	189.920578
881.611694	206.769302
881.568054	227.831726
881.524414	215.139969
881.480774	206.670013
881.437073	198.202774
881.393372	206.603851
881.349731	227.649429
881.306091	177.032333
881.262390	193.861511
881.218689	189.616776
881.174988	168.521255
881.131348	176.919006
881.087646	193.737411
881.044006	189.495392
881.000244	189.465057
880.956604	147.338120
880.912903	172.568451
880.869141	176.749146
880.825500	197.759048
880.781799	210.348282
880.738098	185.076859
880.694397	210.280945
880.650574	151.378052
880.606934	151.353821
880.563232	155.533188
880.519470	142.899506
880.475769	201.708191
880.432007	176.466415
880.388306	180.639069
880.344604	159.608978
880.300842	176.381683
880.257080	172.154556
880.213379	176.325226
880.169617	159.506805
880.125854	188.859406
880.082092	134.278519
880.038391	172.016815
879.994629	197.158447
879.950867	192.932693
879.907104	205.482361
879.863342	163.521011
879.819580	163.494827
879.775818	184.426178
879.732056	150.869995
879.688293	175.986816
879.644531	138.253220
879.600708	129.853455
879.556946	146.585266
879.513123	138.186844
879.469299	167.472382
879.425598	142.328751
879.381775	163.233307
879.338013	159.022385
879.294189	125.523888
879.250427	150.604553
879.206604	125.483704
879.162781	150.556335
879.119019	142.169342
879.075134	183.954407
879.031372	163.024384
878.987549	154.639404
878.943726	129.542007
878.899963	146.233688
878.856140	187.984650
878.812317	171.247498
878.768433	133.635178
878.724609	179.543533
878.680786	137.767166
878.636963	125.222832
878.593079	129.376205
878.549255	200.292389
878.505432	162.711517
878.461609	145.999786
878.417725	154.317917
878.373840	150.123138
878.330017	154.268524
878.286194	150.075073
878.242310	158.387222
878.198425	170.864120
878.154602	129.169266
878.110718	137.480759
878.066895	137.458740
878.022949	124.942497
877.979065	91.609833
877.935181	116.575661
877.891296	112.394257
877.847473	129.024597
877.803589	129.003937
877.759705	137.304794
877.715759	137.282822
877.671936	133.101425
877.627991	166.350143
877.584106	137.216904
877.540222	149.667206
877.496277	99.762161
877.452393	128.838837
877.408447	124.662788
877.364563	128.797592
877.320679	103.852394
877.276672	112.142639
877.232788	149.499573
877.188904	128.715134
877.144958	120.391663
877.101013	116.221619
877.057068	112.052910
877.013184	107.885529
876.969238	107.868256
876.925354	82.962303
876.881348	141.013336
876.837402	99.522888
876.793457	91.214714
876.749512	128.509247
876.705566	103.619904
876.661560	145.044632
876.617676	107.730194
876.573730	91.141731
876.529724	115.979996
876.485779	149.093262
876.441833	111.802048
876.397888	128.344772
876.353821	82.789818
876.309875	86.915398
876.265869	120.006813
876.221924	91.025078
876.177917	115.831551
876.133972	128.221542
876.089966	144.743088
876.046021	136.450211
876.002014	136.428360
875.958008	115.738869
875.913940	132.251816
875.869995	140.495071
875.825989	119.814842
875.781982	111.533890
875.737976	140.427597
875.693970	128.016434
875.649902	132.124847
875.605896	123.847214
875.561890	111.444649
875.517883	132.061401
875.473877	99.030197
875.429810	111.391136
875.385864	82.498741
875.341736	131.976868
875.297791	140.202972
875.253723	119.565742
875.209656	111.302010
875.165588	119.527458
875.121521	135.992233
875.077454	135.970459
875.033447	119.470070
874.989380	111.212944
874.945374	107.076805
874.901306	156.471817
874.857239	160.563782
874.813110	131.723557
874.769104	135.818161
874.725037	144.026505
874.680969	168.689758
874.636841	152.207855
874.592773	135.731216
874.548706	131.597076
874.504639	164.470016
874.460571	147.999313
874.416443	127.423454
874.372437	172.610596
874.328308	135.600891
874.284180	160.229950
874.240051	184.851120
874.196045	143.750076
874.151917	131.407593
874.107788	147.809875
874.063660	127.260353
874.019531	151.867065
873.975464	119.011894
873.931335	135.405640
873.887207	155.896683
873.843079	155.871735
873.798950	147.644318
873.754822	131.218384
873.710754	155.796875
873.666565	135.275635
873.622437	163.944214
873.578308	184.407715
873.534180	139.307968
873.489990	122.899109
873.445862	139.263367
873.401672	131.050415
873.357605	180.165466
873.313416	139.196487
873.269287	159.640991
873.225098	175.986252
873.180969	98.209160
873.136780	106.376221
873.092590	130.903610
873.048462	130.882660
873.004272	143.129990
872.960083	167.639709
872.915894	134.907928
872.871765	138.973785
872.827576	138.951538
872.783386	167.532379
872.739197	138.907043
872.695007	151.139359
872.650818	155.199341
872.606567	134.756805
872.562439	130.652344
872.518188	151.042587
872.474060	110.202614
872.429810	150.994217
872.385559	159.130585
872.341370	142.786636
872.297241	142.763779
872.252930	150.897537
872.208740	159.028702
872.164551	163.080246
872.120361	158.977783
872.076050	167.103729
872.031860	150.776779
871.987610	171.124619
871.943359	142.581009
871.899109	130.338913
871.854919	179.187317
871.810608	146.584320
871.766418	150.631989
871.722168	146.537384
871.677917	158.723419
871.633667	134.282928
871.589417	158.672592
871.545166	162.715073
871.500916	158.621780
871.456665	146.396667
871.412354	117.911766
871.368103	126.023430
871.323853	138.197113
871.279602	134.111008
871.235229	117.836266
871.190979	117.817398
871.146790	150.294678
871.102417	150.270615
871.058105	150.246552
871.013916	138.042282
870.969604	158.317276
870.925293	137.998077
870.880981	105.511047
870.836731	154.183762
870.792419	162.272705
870.748047	121.685043
870.703796	145.998672
870.659485	158.139908
870.615173	113.518158
870.570862	145.928543
870.526550	121.587646
870.482178	137.777267
870.437866	133.703583
870.393555	109.376328
870.349243	117.459465
870.304932	125.540009
870.260559	105.274757
870.216248	113.354660
870.171875	97.145576
870.127563	109.271278
870.083252	117.346649
870.038879	101.144707
869.994507	121.354210
869.950195	117.290283
869.905823	117.271500
869.861511	101.079933
869.817078	92.978645
869.772766	117.215172
869.728394	117.196404
869.684021	117.177635
869.639648	100.999023
869.595276	113.100792
869.550903	113.082680
869.506531	84.798424
869.462158	100.934341
869.417786	84.771271
869.373413	68.613373
869.328979	88.779556
869.284607	68.591393
869.240234	88.751122
869.195862	100.837395
869.151428	84.689842
869.107056	92.740692
869.062622	60.473373
869.018250	60.463688
868.973877	76.575073
868.929443	60.444321
868.885010	80.579521
868.840637	64.453293
868.796143	52.359913
868.751770	60.405609
868.707336	68.448723
868.662903	92.592270
868.618469	48.301273
868.574036	44.269073
868.529663	64.381073
868.485229	96.556137
868.440735	68.382973
868.396301	76.415794
868.351868	64.339836
868.307434	68.350121
868.263000	44.219467
868.218506	52.250999
868.174072	40.186638
868.129578	40.180202
868.085144	52.225899
868.040710	44.184067
867.996277	76.305710
867.951721	40.154469
867.907288	64.236855
867.862793	60.212406
867.818359	60.202763
867.773865	64.205994
867.729370	60.183479
867.684937	88.254959
867.640442	72.197037
867.595947	72.185478
867.551514	56.135265
867.506958	44.099216
867.462463	28.058641
867.417969	60.116032
867.373535	48.085121
867.328979	80.129028
867.284485	40.058098
867.239929	56.072353
867.195435	48.054317
867.150940	64.062164
867.106445	60.048656
867.061890	48.031231
867.017395	44.021576
866.972839	52.017162
866.928345	52.008831
866.883789	36.000347
866.839294	47.992771
866.794739	55.982597
866.750183	83.960442
866.705688	51.967186
866.661133	55.955696
866.616638	59.942928
866.572021	59.933327
866.527527	47.938980
866.482910	71.896950
866.438416	83.866341
866.393860	63.887924
866.349304	51.900623
866.304749	47.900593
866.260193	43.901844
866.215637	47.885246
866.171021	31.918385
866.126465	59.837383
866.081909	35.896679
866.037292	47.854568
865.992676	63.795868
865.948181	59.799046
865.903564	35.873680
865.859009	59.779884
865.814392	31.877499
865.769836	35.856438
865.725159	63.734570
865.680603	59.741585
865.635986	39.821342
865.591431	43.796459
865.546753	79.617165
865.502197	51.742867
865.457581	35.816246
865.412964	43.768398
865.368347	79.566154
865.323792	87.508743
865.279114	71.586594
865.234497	71.575127
865.189880	47.709103
865.145264	79.502434
865.100647	67.566238
865.055969	59.607719
865.011353	63.571377
864.966675	71.506340
864.922058	67.522949
864.877441	31.770412
864.832825	71.471977
864.788147	59.550434
864.743469	31.755142
864.698853	39.687569
864.654175	51.585571
864.609497	83.317184
864.564880	71.403290
864.520203	55.526993
864.475586	51.552517
864.430908	87.228737
864.386169	71.357529
864.341492	67.382423
864.296875	59.445553
864.252136	39.624020
864.207520	79.235336
864.162781	71.300377
864.118103	83.170441
864.073425	67.317665
864.028687	83.143791
863.984009	59.378902
863.939331	55.411427
863.894653	79.146500
863.849976	55.393669
863.805237	94.945358
863.760559	59.331341
863.715820	87.005348
863.671143	59.312325
863.626404	63.256340
863.581665	55.340427
863.536987	75.092827
863.492249	75.080795
863.447571	75.068764
863.402832	71.106377
863.358093	43.446934
863.313354	63.185410
863.268616	82.917557
863.223877	90.799911
863.179138	67.102226
863.134338	35.519012
863.089600	98.648109
863.044861	74.960548
863.000183	67.059212
862.955444	86.768600
862.910645	51.264137
862.865906	74.912498
862.821106	67.016235
862.776367	55.180992
862.731628	66.994751
862.686890	82.744957
862.642090	55.154461
862.597290	66.962540
862.552490	82.705177
862.507751	74.816498
862.463013	82.678665
862.418213	74.792511
862.373352	35.422356
862.328613	82.638908
862.283813	39.345554
862.239014	66.876724
862.194275	47.199532
862.149475	39.326637
862.104675	62.912533
862.059814	78.628059
862.015076	66.823135
861.970215	47.161713
861.925415	51.083664
861.880615	74.648773
861.835754	86.421562
861.790955	51.059101
861.746155	62.831898
861.701294	78.527283
861.656494	54.960285
861.611694	74.576996
861.566833	54.942661
861.522034	54.933853
861.477173	51.001831
861.432373	70.606598
861.387512	70.595276
